timestamps,TP9,AF7,AF8,TP10,Right AUX
1732204951.606,-28.320,-28.809,-11.719,9.766,0.000
1732204951.610,-11.230,-25.879,-14.648,18.555,0.000
1732204951.614,-23.438,-17.578,-20.508,-19.531,0.000
1732204951.617,-49.805,-14.648,-8.789,-33.203,0.000
1732204951.621,-48.828,-20.996,-3.906,-26.367,0.000
1732204951.625,-28.809,-15.625,-5.859,-57.129,0.000
1732204951.629,-14.160,-12.695,-8.789,-41.016,0.000
1732204951.633,-18.555,-21.973,-9.277,-9.277,0.000
1732204951.637,-31.250,-25.391,-7.812,-23.926,0.000
1732204951.641,-29.297,-18.066,-15.137,-23.438,0.000
1732204951.645,-44.434,-21.484,-26.367,-29.297,0.000
1732204951.649,-56.641,-27.832,-12.695,-60.059,0.000
1732204951.653,-47.363,-32.715,-8.789,-43.945,0.000
1732204951.656,-28.809,-29.297,-26.367,-47.852,0.000
1732204951.660,-15.625,-17.090,-25.879,-63.965,0.000
1732204951.664,0.977,-14.160,-17.578,-31.738,0.000
1732204951.668,-7.812,-15.137,-17.090,-15.625,0.000
1732204951.672,-41.016,-24.902,-7.324,-6.348,0.000
1732204951.676,-28.809,-22.461,-9.766,-1.953,0.000
1732204951.680,-11.230,-9.766,-15.137,4.395,0.000
1732204951.684,-31.738,-15.625,-13.184,-3.418,0.000
1732204951.688,-41.016,-28.809,-20.508,-22.461,0.000
1732204951.691,-29.785,-31.250,-31.738,-56.152,0.000
1732204951.695,-25.879,-30.762,-31.250,-59.082,0.000
1732204951.700,-16.113,-32.227,-15.625,-34.668,0.000
1732204951.703,-1.953,-28.320,-16.113,-38.086,0.000
1732204951.707,-2.441,-19.531,-16.602,-34.668,0.000
1732204951.711,-25.391,-19.043,-9.766,-26.855,0.000
1732204951.715,-41.992,-27.832,-13.672,-25.391,0.000
1732204951.719,-43.945,-29.785,-19.043,2.930,0.000
1732204951.723,-67.383,-19.043,-14.648,8.301,0.000
1732204951.727,-65.430,-20.020,-13.672,3.418,0.000
1732204951.731,-54.199,-26.367,-11.230,13.672,0.000
1732204951.734,-59.570,-26.367,-12.207,-17.578,0.000
1732204951.738,-32.227,-27.344,-17.578,-43.457,0.000
1732204951.742,-24.414,-25.391,-17.090,-34.180,0.000
1732204951.746,-49.805,-32.227,-27.832,-43.945,0.000
1732204951.750,-47.852,-31.250,-17.090,-65.430,0.000
1732204951.754,-20.996,-26.367,-6.836,-42.969,0.000
1732204951.758,-23.438,-34.668,-20.020,-22.461,0.000
1732204951.762,-17.090,-29.297,-30.762,-39.551,0.000
1732204951.766,-25.391,-23.926,-22.949,-26.367,0.000
1732204951.770,-27.832,-20.508,-18.066,-23.926,0.000
1732204951.774,-20.020,-17.578,-26.855,-32.227,0.000
1732204951.778,-29.297,-25.391,-31.250,-17.090,0.000
1732204951.781,-29.297,-27.832,-31.250,-24.902,0.000
1732204951.785,-18.555,-24.414,-20.508,-32.227,0.000
1732204951.789,-25.879,-24.414,-14.160,-10.742,0.000
1732204951.793,-35.645,-23.926,-21.484,-4.395,0.000
1732204951.797,-34.180,-20.996,-20.996,-22.949,0.000
1732204951.801,-22.461,-22.949,-26.855,-34.668,0.000
1732204951.805,-27.344,-28.320,-29.297,-27.344,0.000
1732204951.809,-36.133,-27.344,-17.090,-12.695,0.000
1732204951.813,-32.715,-25.879,-20.020,-5.859,0.000
1732204951.817,-33.691,-28.809,-20.996,-21.484,0.000
1732204951.821,-43.945,-31.250,-22.949,-34.668,0.000
1732204951.824,-35.645,-28.320,-20.508,-43.457,0.000
1732204951.828,-30.273,-26.855,-16.602,-57.617,0.000
1732204951.832,-32.227,-22.461,-22.461,-34.180,0.000
1732204951.836,-29.785,-19.043,-20.508,-12.695,0.000
1732204951.840,0.000,-26.855,-11.230,-27.832,0.000
1732204951.844,0.000,-20.996,-14.160,-66.895,0.000
1732204951.848,0.000,-6.348,-20.020,-63.477,0.000
1732204951.852,0.000,-7.812,-19.043,-31.250,0.000
1732204951.856,0.000,-17.578,-14.648,-32.715,0.000
1732204951.860,0.000,-16.113,-15.137,-30.273,0.000
1732204951.864,0.000,-23.926,-11.719,-37.109,0.000
1732204951.867,0.000,-18.555,-7.812,-31.738,0.000
1732204951.871,0.000,-5.859,-8.789,-10.742,0.000
1732204951.875,0.000,-0.977,-7.324,-11.230,0.000
1732204951.879,0.000,-10.742,-7.324,-2.930,0.000
1732204951.883,0.000,-20.020,-21.484,-19.043,0.000
1732204951.887,-35.645,-8.789,0.000,-35.645,0.000
1732204951.891,-39.551,-19.043,0.000,-27.344,0.000
1732204951.894,-15.137,-18.066,0.000,-0.488,0.000
1732204951.898,-1.953,-7.812,0.000,6.348,0.000
1732204951.902,-7.812,-18.555,0.000,-38.574,0.000
1732204951.906,-26.855,-20.996,0.000,-63.965,0.000
1732204951.910,-19.531,-21.484,0.000,-54.688,0.000
1732204951.914,0.488,-10.742,0.000,-31.738,0.000
1732204951.918,-36.133,-7.812,0.000,-43.457,0.000
1732204951.922,-54.688,-9.766,0.000,-51.270,0.000
1732204951.926,-46.875,-6.348,0.000,-21.973,0.000
1732204951.929,-30.273,-15.625,0.000,-10.742,0.000
1732204951.934,-7.324,-14.160,-3.418,-32.227,0.000
1732204951.937,-20.020,-14.648,-6.836,-63.477,0.000
1732204951.941,-14.648,-20.996,-0.488,-60.059,0.000
1732204951.945,-0.488,-11.719,4.395,-17.090,0.000
1732204951.949,-15.137,-9.766,4.395,-4.395,0.000
1732204951.953,-35.645,-26.367,-0.488,-15.625,0.000
1732204951.957,-41.992,-31.250,-6.348,-47.852,0.000
1732204951.961,-40.039,-22.461,-10.254,-84.961,0.000
1732204951.965,-43.457,-21.484,-8.789,-80.566,0.000
1732204951.969,-32.715,-24.902,1.953,-50.781,0.000
1732204951.972,-19.531,-19.531,5.371,-33.691,0.000
1732204951.976,-34.668,-15.625,0.977,-27.832,0.000
1732204951.980,-26.855,-21.973,-2.930,-21.484,0.000
1732204951.984,-2.441,-16.602,-4.395,-27.344,0.000
1732204951.988,-22.461,-15.625,-6.836,-41.504,0.000
1732204951.992,-24.414,-14.648,-2.930,-47.363,0.000
1732204951.996,-14.160,-15.137,-1.953,-35.156,0.000
1732204952.000,-39.062,-22.461,1.465,-29.785,0.000
1732204952.004,-35.156,-19.531,0.977,-47.363,0.000
1732204952.008,-1.465,-18.066,-8.301,-22.949,0.000
1732204952.012,-13.184,-19.531,0.977,2.930,0.000
1732204952.015,-20.020,-26.855,-1.465,-18.066,0.000
1732204952.019,-17.090,-24.414,-18.555,-33.691,0.000
1732204952.023,-40.527,-25.879,-21.484,-67.383,0.000
1732204952.027,-41.504,-37.109,-17.090,-63.965,0.000
1732204952.031,-31.250,-29.297,-12.695,-36.133,0.000
1732204952.035,-20.508,-17.578,-11.719,-28.320,0.000
1732204952.039,-14.648,-21.484,-15.625,-54.199,0.000
1732204952.043,-31.738,-29.297,-25.879,-68.359,0.000
1732204952.047,-41.016,-30.762,-21.973,-57.129,0.000
1732204952.051,-31.250,-23.438,-17.090,-32.227,0.000
1732204952.054,-35.645,-27.832,-16.602,-26.367,0.000
1732204952.058,-29.785,-26.367,-26.855,-50.293,0.000
1732204952.062,-18.555,-28.320,-21.973,-67.383,0.000
1732204952.066,-48.340,-35.645,-10.742,-65.918,0.000
1732204952.070,-50.293,-25.391,-23.438,-46.387,0.000
1732204952.074,-9.277,-24.902,-31.738,-20.020,0.000
1732204952.078,-20.508,-26.367,-12.695,-7.812,0.000
1732204952.082,-40.527,-25.879,-8.301,-28.320,0.000
1732204952.086,-34.180,-35.645,-16.113,-28.809,0.000
1732204952.090,-10.254,-26.855,-17.090,-30.762,0.000
1732204952.094,-3.418,-17.578,-20.020,-20.020,0.000
1732204952.098,-27.832,-30.273,-22.949,-13.184,0.000
1732204952.102,-22.461,-32.715,-21.484,-38.086,0.000
1732204952.105,-17.090,-16.602,-14.160,-39.551,0.000
1732204952.109,-28.809,-8.789,-18.555,-26.855,0.000
1732204952.113,-19.531,-9.277,-21.973,-12.695,0.000
1732204952.117,-2.930,-11.719,-8.301,3.418,0.000
1732204952.121,-16.602,-12.695,-9.277,-2.930,0.000
1732204952.125,-16.602,-12.695,-18.555,-19.043,0.000
1732204952.129,-13.672,-19.043,-14.648,-9.277,0.000
1732204952.133,-18.066,-18.066,-16.113,8.301,0.000
1732204952.137,-1.465,-17.090,-20.508,5.859,0.000
1732204952.141,-10.742,-24.414,-18.555,-3.906,0.000
1732204952.145,-15.625,-18.066,-24.414,-5.859,0.000
1732204952.148,-20.020,-12.695,-20.508,1.465,0.000
1732204952.152,-24.414,-24.414,-16.113,-20.020,0.000
1732204952.156,-30.762,-32.227,-9.766,-26.855,0.000
1732204952.160,-38.086,-37.598,-4.395,-16.602,0.000
1732204952.164,-20.020,-33.691,-9.277,-20.996,0.000
1732204952.168,-18.555,-25.391,-7.812,-44.922,0.000
1732204952.172,-28.809,-23.926,-8.789,-33.203,0.000
1732204952.176,-27.344,-19.531,-6.836,-7.324,0.000
1732204952.180,-17.090,-15.625,-3.418,4.883,0.000
1732204952.184,-24.902,-17.090,-8.301,-15.137,0.000
1732204952.188,-50.781,-21.973,-14.160,-39.551,0.000
1732204952.192,-29.785,-17.578,-17.090,-30.762,0.000
1732204952.195,-13.184,-17.090,-10.254,-42.480,0.000
1732204952.199,-28.320,-18.066,-10.254,-37.109,0.000
1732204952.203,-42.969,-23.438,-9.766,-42.969,0.000
1732204952.207,-41.504,-30.273,-17.578,-42.480,0.000
1732204952.211,-6.348,-18.066,-24.902,-18.555,0.000
1732204952.215,0.488,-13.672,-15.137,-38.574,0.000
1732204952.219,-21.973,-19.531,-13.184,-29.297,0.000
1732204952.223,-30.762,-17.090,-11.719,-11.230,0.000
1732204952.227,-35.156,-17.578,-9.277,-5.859,0.000
1732204952.231,-35.156,-25.391,-15.625,-18.066,0.000
1732204952.235,-44.434,-27.344,-10.742,-11.230,0.000
1732204952.238,-42.969,-24.414,-20.020,-25.391,0.000
1732204952.242,-29.297,-27.832,-29.785,-43.945,0.000
1732204952.246,-31.738,-32.715,-14.648,0.000,0.000
1732204952.250,-30.762,-27.344,-22.949,11.230,0.000
1732204952.254,-41.016,-28.809,-31.250,4.395,0.000
1732204952.258,-66.895,-27.832,-21.484,13.184,0.000
1732204952.262,-40.039,-31.250,-32.715,-33.203,0.000
1732204952.266,-15.137,-32.227,-37.598,-46.387,0.000
1732204952.270,-46.875,-26.855,-39.551,-47.363,0.000
1732204952.274,-54.688,-32.715,-40.527,-72.266,0.000
1732204952.277,-39.062,-31.250,-35.645,-50.293,0.000
1732204952.281,-36.621,-24.902,-35.156,-51.758,0.000
1732204952.285,-57.129,-30.762,-32.715,-39.062,0.000
1732204952.289,-47.363,-37.598,-31.250,-26.367,0.000
1732204952.293,-26.367,-29.785,-22.949,-45.898,0.000
1732204952.297,-25.879,-20.020,-22.949,-41.016,0.000
1732204952.301,-21.973,-21.484,-29.785,-19.043,0.000
1732204952.305,-13.672,-20.508,-31.250,-18.555,0.000
1732204952.309,0.000,-19.043,0.000,-5.371,0.000
1732204952.313,0.000,-9.766,0.000,-52.734,0.000
1732204952.317,0.000,-6.836,0.000,-77.148,0.000
1732204952.321,0.000,-5.859,0.000,-55.176,0.000
1732204952.325,0.000,-9.277,0.000,-32.715,0.000
1732204952.329,0.000,-9.766,0.000,-33.691,0.000
1732204952.333,0.000,-9.277,0.000,-33.691,0.000
1732204952.336,0.000,-19.531,0.000,-18.066,0.000
1732204952.340,0.000,-26.367,0.000,-2.441,0.000
1732204952.344,0.000,-31.250,0.000,-22.461,0.000
1732204952.348,0.000,-25.391,0.000,-46.387,0.000
1732204952.352,0.000,-23.438,0.000,-37.109,0.000
1732204952.356,-20.020,-21.973,-31.250,0.000,0.000
1732204952.360,-20.508,-14.648,-30.762,0.000,0.000
1732204952.364,-10.742,-14.160,-31.738,0.000,0.000
1732204952.368,-25.391,-20.508,-29.785,0.000,0.000
1732204952.372,-25.391,-20.508,-34.180,0.000,0.000
1732204952.376,-23.926,-14.648,-24.414,0.000,0.000
1732204952.379,-33.691,-16.602,-21.484,0.000,0.000
1732204952.383,-59.570,-24.414,-26.855,0.000,0.000
1732204952.387,-48.828,-19.531,-22.949,0.000,0.000
1732204952.391,-29.785,-12.695,-25.391,0.000,0.000
1732204952.395,-32.227,-15.137,-35.156,0.000,0.000
1732204952.399,-37.109,-24.414,-36.621,0.000,0.000
1732204952.403,-62.988,-34.180,-29.785,-48.340,0.000
1732204952.407,-60.547,-36.133,-37.598,-63.477,0.000
1732204952.411,-37.598,-22.461,-38.574,-54.688,0.000
1732204952.415,-26.855,-21.973,-29.785,-35.645,0.000
1732204952.419,-40.039,-26.855,-33.203,-24.902,0.000
1732204952.423,-66.406,-21.973,-34.180,-37.598,0.000
1732204952.426,-90.332,-34.180,-25.879,-38.086,0.000
1732204952.430,-79.590,-36.621,-28.809,-18.066,0.000
1732204952.434,-56.152,-31.738,-30.762,-7.812,0.000
1732204952.438,-69.824,-36.621,-23.926,-21.484,0.000
1732204952.442,-50.781,-30.273,-30.762,-16.602,0.000
1732204952.446,-35.645,-22.461,-31.250,-15.625,0.000
1732204952.450,-59.570,-20.996,-32.715,-46.875,0.000
1732204952.454,-47.852,-23.438,-35.156,-58.105,0.000
1732204952.458,-32.715,-21.484,-30.273,-62.012,0.000
1732204952.462,-34.180,-18.066,-27.344,-57.129,0.000
1732204952.466,-34.668,-22.949,-24.414,-38.574,0.000
1732204952.470,-51.758,-24.902,-29.297,-13.672,0.000
1732204952.473,-53.711,-13.672,-28.809,3.906,0.000
1732204952.477,-54.688,-3.906,-20.996,-3.418,0.000
1732204952.481,-44.434,-9.766,-19.531,-0.977,0.000
1732204952.485,-29.785,-24.902,-14.648,11.719,0.000
1732204952.489,-39.551,-19.043,-18.066,-29.785,0.000
1732204952.493,-24.902,-16.602,-20.996,-38.574,0.000
1732204952.497,-26.855,-21.484,-17.578,-37.598,0.000
1732204952.501,-46.875,-6.836,-20.508,-41.016,0.000
1732204952.505,-43.945,-11.230,-25.391,-26.855,0.000
1732204952.509,-17.578,-14.160,-15.625,-38.086,0.000
1732204952.513,-8.789,-9.766,-8.789,-36.621,0.000
1732204952.516,-14.160,-15.625,-18.555,-23.438,0.000
1732204952.520,-31.250,-25.391,-24.902,-22.949,0.000
1732204952.524,-28.809,-20.020,-25.879,-1.953,0.000
1732204952.528,-13.184,-20.996,-25.391,-4.395,0.000
1732204952.532,-13.184,-29.785,-35.156,-26.367,0.000
1732204952.536,-23.926,-26.367,-25.879,-8.301,0.000
1732204952.540,-26.855,-20.020,-16.113,-15.137,0.000
1732204952.544,-27.832,-15.625,-21.973,-27.832,0.000
1732204952.548,-29.785,-20.020,-31.738,-29.785,0.000
1732204952.552,-35.156,-20.508,-33.691,-54.199,0.000
1732204952.556,-38.086,-18.066,-25.391,-43.457,0.000
1732204952.559,-25.879,-20.020,-25.391,-38.086,0.000
1732204952.563,-28.809,-18.555,-26.367,-34.668,0.000
1732204952.567,-34.180,-18.066,-22.949,-36.133,0.000
1732204952.571,-17.578,-15.137,-18.555,-41.504,0.000
1732204952.575,-17.578,-24.902,-20.996,-45.898,0.000
1732204952.579,-12.207,-23.438,-31.250,-39.062,0.000
1732204952.583,-36.133,-19.531,-26.855,-21.484,0.000
1732204952.587,-55.664,-16.113,-27.344,-33.691,0.000
1732204952.591,-43.457,-11.719,-36.621,-31.738,0.000
1732204952.595,-46.875,-21.973,-23.926,-5.371,0.000
1732204952.599,-29.785,-24.902,-20.508,-5.859,0.000
1732204952.602,-17.090,-22.461,-29.297,-22.949,0.000
1732204952.606,-21.973,-21.973,-31.250,-40.039,0.000
1732204952.610,-29.785,-23.926,-28.809,-40.527,0.000
1732204952.614,-17.090,-19.531,-26.855,-39.551,0.000
1732204952.618,-20.996,-14.160,-26.367,-42.480,0.000
1732204952.622,-39.551,-16.113,-20.020,-47.852,0.000
1732204952.626,-55.176,-12.207,-35.156,-69.824,0.000
1732204952.630,-67.871,-14.160,-29.785,-25.879,0.000
1732204952.634,-52.246,-15.625,-14.160,-10.742,0.000
1732204952.638,0.000,-17.090,-23.926,-18.066,0.000
1732204952.642,0.000,-19.043,-28.809,-8.301,0.000
1732204952.646,0.000,-15.137,-24.902,-31.250,0.000
1732204952.649,0.000,-20.996,-15.137,-41.504,0.000
1732204952.653,0.000,-18.066,-20.508,-50.781,0.000
1732204952.657,0.000,-21.484,-26.367,-49.316,0.000
1732204952.661,0.000,-26.367,-29.297,-41.016,0.000
1732204952.665,0.000,-15.137,-27.832,-26.855,0.000
1732204952.669,0.000,-15.137,-32.227,-22.461,0.000
1732204952.673,0.000,-19.043,-33.203,-24.902,0.000
1732204952.677,0.000,-14.160,-30.273,-19.531,0.000
1732204952.681,0.000,-10.254,-24.414,-15.625,0.000
1732204952.685,-13.184,-15.625,-14.648,-9.277,0.000
1732204952.689,-36.621,-19.043,-16.113,-9.277,0.000
1732204952.692,-48.828,-16.113,-16.113,-18.555,0.000
1732204952.696,-52.246,-21.484,-15.137,8.789,0.000
1732204952.700,-55.176,-19.043,-13.184,18.555,0.000
1732204952.704,-32.227,-10.254,-11.719,-12.207,0.000
1732204952.708,-26.855,-13.184,-21.484,-41.504,0.000
1732204952.712,-30.762,-19.043,-20.020,-54.199,0.000
1732204952.716,-9.766,-14.648,-24.414,-60.547,0.000
1732204952.720,-1.953,-10.254,-32.227,-33.203,0.000
1732204952.724,-29.785,-20.996,-19.531,-6.348,0.000
1732204952.727,-34.180,-20.020,-13.672,-0.977,0.000
1732204952.732,-25.879,-8.301,-14.160,0.977,0.000
1732204952.735,-37.109,-10.742,-20.020,-9.277,0.000
1732204952.739,-32.715,-17.090,-34.668,-26.367,0.000
1732204952.743,-22.461,-19.043,-27.832,-44.434,0.000
1732204952.747,-31.738,-14.648,-22.949,-44.922,0.000
1732204952.751,-38.574,-14.648,-22.949,-41.504,0.000
1732204952.755,-27.832,-17.090,-18.555,-30.273,0.000
1732204952.759,-27.344,-14.648,-25.879,-33.691,0.000
1732204952.763,-32.715,-19.531,-22.461,-32.227,0.000
1732204952.767,-17.090,-12.207,-25.879,-15.625,0.000
1732204952.770,-8.789,-4.883,-27.344,-40.527,0.000
1732204952.774,-31.738,-11.230,-22.949,-56.641,0.000
1732204952.779,-45.898,-20.508,-25.391,-43.457,0.000
1732204952.783,-28.320,-21.973,-25.391,-38.086,0.000
1732204952.786,-45.410,-20.996,-28.809,-30.762,0.000
1732204952.790,-72.754,-26.367,-30.273,-9.766,0.000
1732204952.794,-54.199,-23.438,-32.227,-18.066,0.000
1732204952.798,-35.156,-20.508,-27.344,-2.441,0.000
1732204952.802,-42.480,-29.785,-22.461,6.348,0.000
1732204952.806,-34.180,-29.785,-19.043,-2.930,0.000
1732204952.810,-25.391,-20.996,-17.090,-6.348,0.000
1732204952.814,-35.156,-14.160,-17.090,-38.086,0.000
1732204952.818,-40.039,-7.812,-30.762,-79.590,0.000
1732204952.821,-50.293,-4.395,-39.551,-99.609,0.000
1732204952.826,0.000,-7.812,0.000,-59.570,0.000
1732204952.829,0.000,-16.113,0.000,-27.832,0.000
1732204952.833,0.000,-11.719,0.000,-52.734,0.000
1732204952.837,0.000,-12.695,0.000,-76.172,0.000
1732204952.841,0.000,-14.648,0.000,-54.199,0.000
1732204952.845,0.000,-22.461,0.000,-38.086,0.000
1732204952.849,0.000,-23.926,0.000,-43.457,0.000
1732204952.853,0.000,-9.277,0.000,-30.273,0.000
1732204952.857,0.000,-19.531,0.000,-25.879,0.000
1732204952.861,0.000,-17.578,0.000,-30.273,0.000
1732204952.864,0.000,-18.066,0.000,-35.156,0.000
1732204952.868,0.000,-25.391,0.000,-35.645,0.000
1732204952.872,-28.320,-17.090,-28.320,-35.156,0.000
1732204952.876,-24.902,-14.160,-28.809,-35.156,0.000
1732204952.880,-17.090,-12.207,-29.297,-24.902,0.000
1732204952.884,-29.785,-8.301,-29.297,-16.113,0.000
1732204952.888,-41.016,-12.207,-22.949,-16.602,0.000
1732204952.892,-42.480,-18.066,-21.484,-18.555,0.000
1732204952.896,-39.551,-18.066,-35.156,-41.992,0.000
1732204952.900,-30.273,-19.043,-37.109,-54.199,0.000
1732204952.904,-22.949,-16.602,-30.273,-29.785,0.000
1732204952.907,-27.344,-14.648,-39.551,-33.691,0.000
1732204952.911,-45.898,-25.879,-36.133,-41.504,0.000
1732204952.915,-51.270,-30.762,-21.484,-32.715,0.000
1732204952.919,-50.781,-24.902,-22.461,-37.598,0.000
1732204952.923,-59.570,-28.320,-30.762,-56.152,0.000
1732204952.927,-28.320,-28.320,-37.109,-52.734,0.000
1732204952.931,-41.016,-26.855,-36.621,-50.781,0.000
1732204952.935,-55.664,-21.973,-29.297,-47.363,0.000
1732204952.939,-37.109,-20.508,-26.855,-30.273,0.000
1732204952.943,-35.645,-21.484,-21.973,-20.996,0.000
1732204952.947,-47.852,-19.043,-20.508,-35.645,0.000
1732204952.951,-48.828,-17.090,-35.156,-36.621,0.000
1732204952.954,-16.113,-13.672,-39.551,-41.992,0.000
1732204952.958,-11.719,-14.648,-23.926,-47.852,0.000
1732204952.962,-22.461,-17.578,-17.090,-43.457,0.000
1732204952.966,-27.832,-22.949,-29.785,-57.617,0.000
1732204952.970,-17.578,-22.949,-39.551,-66.406,0.000
1732204952.974,-9.766,-22.461,-37.109,-54.199,0.000
1732204952.978,-4.883,-24.414,-29.785,-17.090,0.000
1732204952.982,-12.695,-25.391,-29.297,-18.555,0.000
1732204952.986,-24.902,-22.461,-40.039,-30.273,0.000
1732204952.990,-27.344,-22.461,-38.574,-28.809,0.000
1732204952.994,-33.691,-29.785,-38.086,-11.230,0.000
1732204952.998,-37.109,-29.297,-37.109,16.113,0.000
1732204953.001,-26.855,-23.926,-31.738,-0.977,0.000
1732204953.005,-15.625,-21.973,-30.762,-19.531,0.000
1732204953.009,-22.949,-21.973,-36.133,-39.062,0.000
1732204953.013,-30.273,-23.926,-31.250,-54.688,0.000
1732204953.017,-29.297,-20.020,-23.438,-57.617,0.000
1732204953.021,-32.715,-23.438,-29.785,-54.199,0.000
1732204953.025,-33.203,-24.902,-35.645,-42.480,0.000
1732204953.029,-38.086,-28.320,-21.973,-25.391,0.000
1732204953.033,-35.156,-23.926,-23.926,-25.391,0.000
1732204953.037,-23.438,-18.555,-28.809,-26.367,0.000
1732204953.041,-30.273,-24.902,-20.996,-27.344,0.000
1732204953.045,-30.273,-23.926,-19.531,-17.090,0.000
1732204953.048,-18.555,-18.066,-17.578,-26.367,0.000
1732204953.052,-7.324,-11.719,-12.207,-20.508,0.000
1732204953.056,-20.020,-14.160,-10.742,-30.762,0.000
1732204953.060,-36.621,-18.555,-18.555,-41.504,0.000
1732204953.064,-32.715,-17.090,-25.879,-24.902,0.000
1732204953.068,-23.926,-14.648,-15.625,-53.223,0.000
1732204953.072,-37.598,-13.184,-19.043,-54.688,0.000
1732204953.076,-25.391,-14.160,-26.855,-7.812,0.000
1732204953.080,-15.625,-15.625,-22.949,-4.395,0.000
1732204953.084,-5.371,-14.160,-19.531,-13.184,0.000
1732204953.088,-8.789,-12.207,-20.508,-17.090,0.000
1732204953.092,-33.691,-17.578,-25.879,-32.715,0.000
1732204953.095,-17.090,-15.137,-13.184,-26.367,0.000
1732204953.099,-18.555,-15.137,-9.277,0.488,0.000
1732204953.103,-42.969,-19.043,-22.461,-15.625,0.000
1732204953.107,-31.250,-12.207,-30.273,-21.973,0.000
1732204953.111,-12.207,-8.789,-28.320,-16.113,0.000
1732204953.115,-23.438,-10.742,-29.785,-35.645,0.000
1732204953.119,-35.156,-13.672,-31.738,-51.270,0.000
1732204953.123,-47.363,-17.090,-26.855,-54.199,0.000
1732204953.127,-30.273,-15.625,-21.484,-28.320,0.000
1732204953.131,-18.066,-20.508,-22.949,-41.016,0.000
1732204953.135,-35.156,-18.555,-28.320,-27.344,0.000
1732204953.138,-51.270,-20.508,-19.043,-1.953,0.000
1732204953.142,-23.438,-20.020,-25.879,-5.859,0.000
1732204953.146,-21.484,-13.184,-30.273,-9.277,0.000
1732204953.150,-43.457,-16.602,-16.113,-42.480,0.000
1732204953.154,-33.691,-16.113,-18.066,-47.852,0.000
1732204953.158,-20.020,-14.160,-26.367,-53.223,0.000
1732204953.162,-28.320,-8.789,-20.996,-62.500,0.000
1732204953.166,-43.457,-10.254,-23.926,-71.777,0.000
1732204953.170,-49.316,-24.414,-23.438,-54.688,0.000
1732204953.174,-40.039,-24.902,-20.508,-32.715,0.000
1732204953.178,-24.902,-19.531,-21.484,-34.180,0.000
1732204953.181,-34.668,-26.855,-20.020,-45.898,0.000
1732204953.185,-42.969,-22.461,-18.066,-50.293,0.000
1732204953.189,-51.758,-16.113,-16.602,-53.223,0.000
1732204953.193,-40.527,-11.230,-16.602,-64.453,0.000
1732204953.197,-13.672,-7.324,-9.277,-42.480,0.000
1732204953.201,-38.574,-11.230,-8.301,-20.020,0.000
1732204953.205,-57.617,-16.113,-12.207,-50.293,0.000
1732204953.209,-57.129,-20.508,-13.184,-65.918,0.000
1732204953.213,-80.078,-25.879,-12.207,-73.242,0.000
1732204953.217,-91.797,-19.043,-9.277,-70.801,0.000
1732204953.221,-78.125,-15.137,-9.766,-48.828,0.000
1732204953.224,-75.684,-19.531,-5.371,-82.520,0.000
1732204953.228,-89.844,-11.719,-4.395,-89.355,0.000
1732204953.232,-75.684,-9.766,-13.184,-52.734,0.000
1732204953.236,-80.566,-12.695,-19.043,-65.918,0.000
1732204953.240,-91.309,-10.254,-3.418,-68.848,0.000
1732204953.244,-77.637,-9.766,7.324,-96.191,0.000
1732204953.248,-81.055,-13.672,0.488,-139.648,0.000
1732204953.252,-91.797,-11.230,3.418,-143.555,0.000
1732204953.256,-102.051,-6.348,5.371,-140.137,0.000
1732204953.260,-108.398,-8.301,-3.906,-149.414,0.000
1732204953.264,-105.469,-5.859,-9.277,-131.348,0.000
1732204953.267,-97.656,-4.883,-9.766,-123.047,0.000
1732204953.271,-94.238,-6.348,-5.371,-113.281,0.000
1732204953.275,-89.844,-2.930,-1.465,-104.004,0.000
1732204953.279,-89.355,-7.324,-6.836,-102.539,0.000
1732204953.283,-67.383,-16.113,-8.301,-89.355,0.000
1732204953.287,-71.777,-13.184,-8.301,-88.379,0.000
1732204953.291,-85.449,-15.137,-8.789,-86.914,0.000
1732204953.295,-63.477,-18.555,-10.254,-77.148,0.000
1732204953.299,-64.453,-12.207,-12.207,-77.148,0.000
1732204953.303,-78.613,-11.230,-13.672,-75.684,0.000
1732204953.307,-72.754,-12.695,-9.277,-54.199,0.000
1732204953.310,-61.035,-11.719,-18.066,-57.129,0.000
1732204953.314,-52.734,-13.672,-26.367,-67.383,0.000
1732204953.318,-31.250,-17.578,-25.879,-78.125,0.000
1732204953.322,-23.438,-21.973,-25.879,-86.426,0.000
1732204953.326,-50.293,-27.832,-21.484,-68.359,0.000
1732204953.330,-47.852,-29.297,-28.320,-59.570,0.000
1732204953.334,-32.715,-31.250,-31.738,-63.965,0.000
1732204953.338,-24.414,-31.250,-31.250,-62.500,0.000
1732204953.342,0.000,-23.926,-34.668,-54.199,0.000
1732204953.346,0.000,-26.367,-35.156,-42.969,0.000
1732204953.350,0.000,-26.367,-24.414,-24.902,0.000
1732204953.353,0.000,-24.414,-18.066,-32.715,0.000
1732204953.357,0.000,-27.832,-28.320,-26.855,0.000
1732204953.361,0.000,-24.902,-37.598,-14.648,0.000
1732204953.365,0.000,-12.207,-36.621,-23.438,0.000
1732204953.369,0.000,-13.184,-34.180,-13.672,0.000
1732204953.373,0.000,-14.160,-35.156,-38.574,0.000
1732204953.377,0.000,-17.090,-30.762,-53.711,0.000
1732204953.381,0.000,-32.715,-30.273,-51.270,0.000
1732204953.385,0.000,-30.762,-34.668,-37.598,0.000
1732204953.388,-27.344,-27.832,-27.344,-20.508,0.000
1732204953.392,-32.227,-20.996,-22.461,-49.805,0.000
1732204953.396,-43.457,-24.414,-20.508,-58.105,0.000
1732204953.400,-45.898,-24.414,-28.809,-35.156,0.000
1732204953.404,-54.688,-13.184,-35.156,-24.414,0.000
1732204953.408,-61.523,-21.484,-24.414,-41.992,0.000
1732204953.412,2.441,-22.949,-27.832,-78.125,0.000
1732204953.416,-12.695,-21.484,-26.367,-68.359,0.000
1732204953.420,-72.754,-23.438,-18.555,-46.875,0.000
1732204953.423,-58.594,-14.160,-18.066,-64.453,0.000
1732204953.427,-64.941,-11.230,-21.973,-65.918,0.000
1732204953.431,-64.453,-12.207,-17.090,-57.129,0.000
1732204953.435,-50.293,-22.461,-15.625,-72.266,0.000
1732204953.439,-32.227,-20.508,-17.578,-83.984,0.000
1732204953.443,-36.133,-17.090,-10.742,-89.844,0.000
1732204953.447,-54.199,-25.879,-9.766,-108.398,0.000
1732204953.451,-50.781,-25.391,-12.207,-123.535,0.000
1732204953.455,-26.855,-20.996,-11.719,-137.207,0.000
1732204953.459,-26.855,-22.949,-2.930,-137.207,0.000
1732204953.462,-44.922,-23.438,-4.883,-146.484,0.000
1732204953.466,-35.645,-19.531,-6.836,-151.855,0.000
1732204953.470,-38.574,-19.043,-10.254,-159.180,0.000
1732204953.474,-52.246,-16.602,-8.301,-194.336,0.000
1732204953.478,-77.148,-31.250,1.953,-175.781,0.000
1732204953.482,-81.543,-37.109,-3.418,-145.508,0.000
1732204953.486,-65.430,-21.484,-5.371,-163.086,0.000
1732204953.490,-44.922,-20.020,4.395,-136.230,0.000
1732204953.494,-34.180,-25.879,8.789,-108.887,0.000
1732204953.498,-62.500,-29.297,7.324,-126.953,0.000
1732204953.502,-66.406,-33.203,9.277,-133.789,0.000
1732204953.505,-67.383,-42.480,1.465,-130.371,0.000
1732204953.509,-73.242,-48.340,1.953,-132.812,0.000
1732204953.513,-60.059,-41.504,5.859,-125.488,0.000
1732204953.517,-65.918,-32.227,-6.348,-175.293,0.000
1732204953.521,-63.965,-34.180,-11.230,-185.059,0.000
1732204953.525,-68.848,-39.062,-8.789,-160.156,0.000
1732204953.529,-49.805,-40.039,-9.277,-130.371,0.000
1732204953.533,-18.555,-33.203,-2.441,-144.043,0.000
1732204953.537,-22.949,-23.926,-13.672,-173.340,0.000
1732204953.541,-52.246,-29.785,-10.254,-108.887,0.000
1732204953.545,-58.594,-41.016,6.348,-145.508,0.000
1732204953.548,-9.766,-30.762,-1.953,-145.020,0.000
1732204953.552,-0.977,-24.414,-6.836,-77.637,0.000
1732204953.556,-1.465,-30.762,-2.930,-99.609,0.000
1732204953.560,-16.113,-29.297,0.000,-115.234,0.000
1732204953.564,-37.598,-28.809,-4.883,-119.141,0.000
1732204953.568,-34.668,-23.926,-6.348,-112.793,0.000
1732204953.572,-47.852,-28.320,-4.883,-95.215,0.000
1732204953.576,-30.762,-30.273,-7.812,-125.977,0.000
1732204953.580,-8.301,-21.973,-12.207,-117.676,0.000
1732204953.584,-11.719,-28.320,-16.113,-69.824,0.000
1732204953.588,-3.906,-27.344,-18.555,-72.266,0.000
1732204953.592,-7.324,-28.320,-16.602,-89.355,0.000
1732204953.595,-20.508,-36.133,-26.367,-96.191,0.000
1732204953.599,-32.227,-32.715,-33.691,-78.125,0.000
1732204953.603,-43.945,-20.996,-21.484,-73.242,0.000
1732204953.607,-45.410,-26.367,-18.066,-83.496,0.000
1732204953.611,-34.668,-34.668,-22.949,-34.180,0.000
1732204953.615,-24.414,-26.855,-19.043,10.742,0.000
1732204953.619,-26.855,-28.809,-17.578,-1.465,0.000
1732204953.623,-21.973,-34.180,-21.973,-26.855,0.000
1732204953.627,-13.672,-32.227,-26.855,-64.453,0.000
1732204953.631,-11.230,-35.645,-25.879,-76.172,0.000
1732204953.635,-7.812,-38.086,-19.531,-90.820,0.000
1732204953.638,-5.371,-37.109,-20.508,-83.008,0.000
1732204953.642,8.789,-38.574,-25.391,-87.402,0.000
1732204953.646,0.977,-32.227,-31.250,-101.562,0.000
1732204953.650,-11.230,-34.180,-31.250,-68.848,0.000
1732204953.654,-5.859,-37.598,-20.996,-33.691,0.000
1732204953.658,-1.953,-33.691,-21.973,-29.785,0.000
1732204953.662,-6.348,-35.645,-28.320,-59.082,0.000
1732204953.666,0.977,-33.203,-28.809,-56.152,0.000
1732204953.670,3.418,-31.738,-24.414,-41.992,0.000
1732204953.674,10.742,-34.180,-24.414,-38.086,0.000
1732204953.678,15.625,-24.902,-27.832,-53.711,0.000
1732204953.681,14.160,-15.137,-25.391,-69.336,0.000
1732204953.685,16.113,-20.996,-22.949,-58.594,0.000
1732204953.689,8.789,-17.090,-20.996,-43.945,0.000
1732204953.693,12.695,-11.719,-20.020,-34.180,0.000
1732204953.697,16.113,-13.184,-18.555,-33.203,0.000
1732204953.701,3.418,-7.812,-22.461,-22.949,0.000
1732204953.705,-3.418,-6.348,-21.484,-27.832,0.000
1732204953.709,9.277,-10.742,-20.020,-56.152,0.000
1732204953.713,2.441,-15.625,-20.020,-51.270,0.000
1732204953.717,-15.137,-19.043,-16.113,-37.109,0.000
1732204953.721,-11.230,-16.602,-19.043,-43.457,0.000
1732204953.724,7.812,-14.648,-18.066,-37.109,0.000
1732204953.728,12.207,-17.090,-9.766,-28.320,0.000
1732204953.732,18.555,-12.695,0.488,-13.672,0.000
1732204953.736,13.184,-12.695,-0.488,-27.344,0.000
1732204953.740,-8.301,-10.254,2.441,-41.504,0.000
1732204953.744,-18.066,-6.836,5.371,-40.039,0.000
1732204953.748,-3.418,-18.555,12.695,-5.859,0.000
1732204953.752,20.996,-20.020,8.301,-6.836,0.000
1732204953.756,4.395,-15.137,-0.488,-44.434,0.000
1732204953.759,-6.348,-15.625,6.836,-25.391,0.000
1732204953.764,0.000,-16.602,6.348,-28.809,0.000
1732204953.767,0.000,-9.766,11.230,-41.504,0.000
1732204953.771,0.000,-10.254,10.742,-47.852,0.000
1732204953.775,0.000,-22.949,16.113,-53.711,0.000
1732204953.779,0.000,-23.438,23.926,-57.617,0.000
1732204953.783,0.000,-19.531,12.695,-101.562,0.000
1732204953.787,0.000,-23.926,10.254,-98.633,0.000
1732204953.791,0.000,-23.926,27.344,-48.828,0.000
1732204953.795,0.000,-16.113,28.809,-31.250,0.000
1732204953.799,0.000,-25.391,20.508,-64.941,0.000
1732204953.802,0.000,-27.344,19.531,-78.125,0.000
1732204953.806,0.000,-23.926,20.020,-83.496,0.000
1732204953.810,1.465,-28.809,26.855,-71.289,0.000
1732204953.814,21.484,-24.414,38.086,-44.434,0.000
1732204953.818,12.695,-20.508,40.039,-57.617,0.000
1732204953.822,-50.293,-22.949,34.180,-58.105,0.000
1732204953.826,-26.367,-21.973,30.762,-69.336,0.000
1732204953.829,-7.324,-17.578,33.691,-89.355,0.000
1732204953.833,-23.438,-20.996,35.156,-75.684,0.000
1732204953.837,13.184,-19.043,35.156,-55.664,0.000
1732204953.841,10.742,-12.695,29.297,-48.340,0.000
1732204953.845,-41.992,-16.113,27.344,-42.969,0.000
1732204953.849,-61.035,-15.625,36.133,-53.223,0.000
1732204953.853,-42.969,-26.855,27.832,-102.051,0.000
1732204953.857,-57.617,-37.109,14.648,-118.652,0.000
1732204953.861,-39.551,-26.855,19.531,-108.398,0.000
1732204953.865,-33.203,-25.879,27.832,-86.426,0.000
1732204953.869,-15.137,-27.344,28.809,-73.730,0.000
1732204953.872,-39.551,-23.438,26.367,-79.102,0.000
1732204953.876,-55.664,-21.973,20.508,-81.055,0.000
1732204953.880,-47.363,-24.414,15.137,-101.562,0.000
1732204953.884,-53.711,-21.973,18.555,-101.074,0.000
1732204953.888,-60.547,-14.648,20.996,-98.633,0.000
1732204953.892,-74.219,-17.578,20.508,-104.980,0.000
1732204953.896,-75.684,-21.973,18.555,-90.332,0.000
1732204953.900,-62.988,-24.902,8.789,-93.262,0.000
1732204953.904,-58.105,-28.320,1.953,-111.328,0.000
1732204953.908,-63.477,-23.438,2.930,-104.492,0.000
1732204953.911,-73.730,-23.926,1.953,-92.773,0.000
1732204953.915,-74.219,-38.574,-10.254,-97.168,0.000
1732204953.919,-55.664,-29.297,25.879,-91.797,0.000
1732204953.923,-20.996,-0.977,31.738,-61.035,0.000
1732204953.927,-30.762,-23.438,-5.859,-61.523,0.000
1732204953.931,-47.363,-32.227,1.953,-81.055,0.000
1732204953.935,-82.031,-24.902,12.695,-100.586,0.000
1732204953.939,-85.449,-27.344,7.812,-141.602,0.000
1732204953.943,-88.379,-21.973,8.301,-133.789,0.000
1732204953.946,-74.219,-14.648,19.043,-102.539,0.000
1732204953.951,-66.406,-5.371,15.137,-112.793,0.000
1732204953.954,-53.223,-8.789,13.184,-117.676,0.000
1732204953.958,-57.129,-11.230,16.602,-112.305,0.000
1732204953.962,-85.449,-12.207,20.508,-118.164,0.000
1732204953.966,-80.566,-7.812,17.090,-91.309,0.000
1732204953.970,-78.613,-7.812,8.301,-82.520,0.000
1732204953.974,-60.059,-12.207,12.207,-91.309,0.000
1732204953.978,-76.660,-15.137,14.160,-84.473,0.000
1732204953.982,-83.008,-15.625,9.277,-113.770,0.000
1732204953.986,-63.965,-14.648,9.277,-113.281,0.000
1732204953.990,-92.773,-22.949,9.766,-125.000,0.000
1732204953.993,-89.355,-21.484,4.883,-134.277,0.000
1732204953.998,-31.250,-15.625,-1.465,-54.199,0.000
1732204954.001,-23.438,-6.836,-7.324,-35.156,0.000
1732204954.005,-64.941,-11.719,-9.277,-49.805,0.000
1732204954.009,-46.387,-20.020,-18.066,-34.180,0.000
1732204954.013,-2.441,-7.324,-9.766,-37.109,0.000
1732204954.017,-14.160,-8.301,-4.883,-35.645,0.000
1732204954.021,-4.883,-11.230,-15.137,-35.645,0.000
1732204954.025,-2.930,-3.418,-14.160,-29.785,0.000
1732204954.029,-18.066,0.977,-16.602,-45.898,0.000
1732204954.033,-1.465,1.465,-17.578,-50.781,0.000
1732204954.036,7.324,-0.977,-17.090,-28.320,0.000
1732204954.040,5.859,0.488,-16.113,-3.418,0.000
1732204954.044,-12.207,-4.883,-23.438,-18.555,0.000
1732204954.048,-20.508,-2.930,-31.250,-37.598,0.000
1732204954.052,-10.254,-5.371,-28.809,-19.531,0.000
1732204954.056,-21.973,-12.695,-31.738,-2.441,0.000
1732204954.060,-62.988,-12.207,-32.227,6.348,0.000
1732204954.064,-75.195,-17.578,-29.297,2.441,0.000
1732204954.068,-35.156,-19.531,-27.344,2.930,0.000
1732204954.072,-34.180,-19.043,-31.738,14.160,0.000
1732204954.076,-35.156,-22.949,-34.180,25.879,0.000
1732204954.079,-32.715,-22.461,-35.156,-1.465,0.000
1732204954.083,-51.270,-18.066,-36.621,-36.133,0.000
1732204954.087,-27.344,-21.973,-33.691,-20.508,0.000
1732204954.091,-12.207,-24.414,-26.855,21.484,0.000
1732204954.095,1.465,-18.066,-29.297,4.883,0.000
1732204954.099,10.742,-15.137,-32.715,-17.578,0.000
1732204954.103,-9.277,-22.949,-31.250,-40.527,0.000
1732204954.107,-5.371,-23.438,-39.062,-29.785,0.000
1732204954.111,3.418,-20.996,-32.227,36.133,0.000
1732204954.115,0.488,-19.531,-21.973,26.367,0.000
1732204954.119,12.695,-19.531,-26.367,18.066,0.000
1732204954.122,23.926,-19.043,-29.297,9.766,0.000
1732204954.126,17.578,-22.461,-32.715,-14.160,0.000
1732204954.130,18.066,-27.832,-32.227,-0.488,0.000
1732204954.134,12.695,-31.250,-31.738,-19.531,0.000
1732204954.138,5.859,-38.086,-30.273,-23.926,0.000
1732204954.142,4.395,-40.039,-35.156,6.348,0.000
1732204954.146,-31.250,-42.969,-36.621,0.000,0.000
1732204954.150,-31.250,-37.598,-44.922,-35.645,0.000
1732204954.154,12.207,-23.438,-54.199,-2.441,0.000
1732204954.158,3.906,-21.973,-38.086,53.223,0.000
1732204954.162,14.160,-31.738,-34.668,41.016,0.000
1732204954.165,32.715,-33.691,-37.109,35.645,0.000
1732204954.169,16.602,-33.203,-39.551,23.438,0.000
1732204954.173,7.324,-35.156,-40.039,11.719,0.000
1732204954.177,1.465,-31.250,-41.504,16.602,0.000
1732204954.181,-6.836,-25.879,-31.250,24.902,0.000
1732204954.185,0.000,-34.668,-24.414,11.719,0.000
1732204954.189,0.000,-33.691,-32.715,3.906,0.000
1732204954.193,0.000,-25.879,-30.273,17.578,0.000
1732204954.197,0.000,-32.715,-12.695,-31.250,0.000
1732204954.201,0.000,-34.180,-3.418,-65.918,0.000
1732204954.204,0.000,-31.250,-1.465,-42.480,0.000
1732204954.208,0.000,-26.367,10.742,-56.641,0.000
1732204954.212,0.000,-24.902,11.719,-56.152,0.000
1732204954.216,0.000,-27.832,9.277,-69.336,0.000
1732204954.220,0.000,-23.926,22.949,-105.957,0.000
1732204954.224,0.000,-29.297,30.273,-112.305,0.000
1732204954.228,0.000,-40.039,38.086,-120.605,0.000
1732204954.232,-142.578,-31.738,0.000,-136.230,0.000
1732204954.236,-150.879,-33.203,0.000,-152.344,0.000
1732204954.240,-176.758,-33.203,0.000,-145.996,0.000
1732204954.244,-187.500,-28.809,0.000,-150.879,0.000
1732204954.247,-192.383,-37.598,0.000,-177.734,0.000
1732204954.251,-198.730,-39.062,0.000,-176.758,0.000
1732204954.255,-190.430,-32.715,0.000,-172.363,0.000
1732204954.259,-180.176,-35.645,0.000,-200.195,0.000
1732204954.263,-191.406,-39.551,0.000,-224.609,0.000
1732204954.267,-187.988,-24.414,0.000,-201.660,0.000
1732204954.271,-146.973,-25.879,0.000,-166.016,0.000
1732204954.275,-160.645,-32.227,0.000,-180.664,0.000
1732204954.279,-178.711,-31.738,96.680,-177.734,0.000
1732204954.283,-175.293,-42.480,102.539,-183.105,0.000
1732204954.286,-179.199,-46.387,102.051,-171.875,0.000
1732204954.290,-188.965,-42.969,101.074,-147.461,0.000
1732204954.294,-191.406,-40.039,106.445,-173.828,0.000
1732204954.298,-204.102,-45.410,109.375,-178.711,0.000
1732204954.302,-185.547,-47.363,97.168,-162.598,0.000
1732204954.306,-166.992,-41.992,90.332,-167.480,0.000
1732204954.310,-173.340,-43.945,83.496,-183.105,0.000
1732204954.314,-143.066,-45.898,79.590,-175.293,0.000
1732204954.318,-133.301,-46.875,76.172,-146.973,0.000
1732204954.321,-134.277,-44.434,63.477,-135.742,0.000
1732204954.326,-125.000,-44.434,52.246,-148.438,0.000
1732204954.330,-153.320,-50.293,49.316,-131.348,0.000
1732204954.333,-173.828,-52.734,46.387,-144.043,0.000
1732204954.337,-137.695,-52.246,38.574,-152.832,0.000
1732204954.341,-110.352,-53.223,27.832,-91.309,0.000
1732204954.345,-107.910,-52.246,34.180,-71.777,0.000
1732204954.349,-100.098,-45.898,20.996,-95.703,0.000
1732204954.353,-76.172,-46.387,-5.371,-117.676,0.000
1732204954.357,-64.453,-55.664,-4.883,-109.863,0.000
1732204954.361,-90.332,-62.988,3.418,-78.125,0.000
1732204954.365,-75.684,-68.359,-4.395,-83.008,0.000
1732204954.368,-39.062,-67.871,-13.184,-67.871,0.000
1732204954.373,-26.855,-66.406,-15.625,-50.781,0.000
1732204954.376,-23.438,-67.871,-33.691,-49.316,0.000
1732204954.380,-10.742,-65.918,-36.133,-3.418,0.000
1732204954.384,-23.926,-62.988,-38.574,-17.090,0.000
1732204954.388,-29.785,-63.965,-49.805,-0.488,0.000
1732204954.392,-16.602,-58.594,-67.871,20.020,0.000
1732204954.396,21.973,-47.363,-80.078,22.461,0.000
1732204954.400,43.945,-41.016,-86.914,35.156,0.000
1732204954.404,42.480,-44.434,-96.191,30.273,0.000
1732204954.408,38.086,-44.434,-100.586,29.297,0.000
1732204954.411,43.945,-39.551,-97.656,9.766,0.000
1732204954.415,53.711,-36.133,-102.539,18.066,0.000
1732204954.419,49.316,-32.715,-110.352,46.387,0.000
1732204954.423,63.965,-33.203,-114.258,47.852,0.000
1732204954.427,61.523,-38.086,-121.582,41.016,0.000
1732204954.431,51.270,-46.387,-127.930,53.223,0.000
1732204954.435,60.059,-55.176,-134.277,79.102,0.000
1732204954.439,54.688,-52.734,-138.672,79.590,0.000
1732204954.443,61.035,-50.293,-135.254,93.750,0.000
1732204954.447,99.609,-47.852,-137.695,77.148,0.000
1732204954.451,112.305,-48.828,-138.184,86.426,0.000
1732204954.454,103.027,-54.199,-137.695,129.883,0.000
1732204954.458,97.168,-52.734,-150.391,97.168,0.000
1732204954.462,90.332,-51.270,-155.273,80.566,0.000
1732204954.466,100.098,-51.758,-146.484,106.934,0.000
1732204954.470,115.234,-58.594,-146.973,112.793,0.000
1732204954.474,135.742,-62.012,-151.367,132.812,0.000
1732204954.478,151.855,-64.453,-145.508,129.883,0.000
1732204954.482,139.160,-73.730,-146.973,124.023,0.000
1732204954.486,127.930,-76.172,-143.555,108.887,0.000
1732204954.490,124.023,-80.078,-139.160,104.004,0.000
1732204954.494,151.367,-81.543,-151.367,99.121,0.000
1732204954.497,155.762,-85.449,-150.879,116.211,0.000
1732204954.501,135.254,-90.820,-135.742,155.273,0.000
1732204954.505,151.367,-87.891,-125.000,155.762,0.000
1732204954.509,156.250,-84.961,-124.023,181.152,0.000
1732204954.513,0.000,-87.402,-129.395,126.465,0.000
1732204954.517,0.000,-88.867,-128.418,82.031,0.000
1732204954.521,0.000,-83.984,-122.070,95.703,0.000
1732204954.525,0.000,-79.590,-121.094,93.750,0.000
1732204954.529,0.000,-80.566,-120.605,122.559,0.000
1732204954.533,0.000,-83.984,-102.539,147.949,0.000
1732204954.537,0.000,-81.055,-97.656,145.508,0.000
1732204954.540,0.000,-82.520,-101.562,161.133,0.000
1732204954.544,0.000,-81.055,-96.191,152.832,0.000
1732204954.548,0.000,-80.078,-95.215,133.301,0.000
1732204954.552,0.000,-82.031,-104.492,121.094,0.000
1732204954.556,0.000,-78.125,-100.098,106.445,0.000
1732204954.560,106.934,-83.984,-90.332,95.703,0.000
1732204954.564,100.098,-86.426,-93.262,107.910,0.000
1732204954.568,98.633,-82.031,-86.426,132.324,0.000
1732204954.572,105.469,-80.078,-83.496,115.723,0.000
1732204954.576,78.613,-83.496,-84.961,104.980,0.000
1732204954.580,90.820,-79.102,-95.215,59.570,0.000
1732204954.583,121.582,-79.102,-96.191,64.941,0.000
1732204954.587,98.145,-80.566,-80.566,140.137,0.000
1732204954.591,63.965,-78.613,-74.707,154.785,0.000
1732204954.595,69.824,-86.914,-71.777,133.301,0.000
1732204954.599,79.102,-87.891,-69.336,134.277,0.000
1732204954.603,83.008,-90.820,-62.500,122.559,0.000
1732204954.607,77.148,-90.820,-67.871,62.012,0.000
1732204954.611,42.480,-84.961,-73.242,104.004,0.000
1732204954.615,52.734,-81.543,-64.941,124.023,0.000
1732204954.619,65.430,-85.938,-63.965,65.918,0.000
1732204954.622,41.504,-91.797,-67.383,80.078,0.000
1732204954.626,39.551,-89.844,-63.477,83.984,0.000
1732204954.630,61.035,-90.332,-56.641,85.938,0.000
1732204954.634,75.684,-84.961,-58.105,81.055,0.000
1732204954.638,68.848,-85.938,-50.781,78.125,0.000
1732204954.642,65.918,-86.914,-41.504,65.918,0.000
1732204954.646,61.523,-78.613,-46.875,38.574,0.000
1732204954.650,44.434,-83.496,-40.039,86.426,0.000
1732204954.654,0.000,-89.355,-36.133,85.938,0.000
1732204954.658,0.000,-85.449,-40.527,52.246,0.000
1732204954.662,0.000,-87.891,-35.645,65.430,0.000
1732204954.665,0.000,-85.938,-29.785,94.238,0.000
1732204954.669,0.000,-86.426,-23.438,75.684,0.000
1732204954.673,0.000,-87.891,-18.555,67.871,0.000
1732204954.677,0.000,-84.473,-18.555,66.406,0.000
1732204954.681,0.000,-79.102,-17.090,39.062,0.000
1732204954.685,0.000,-72.754,-16.113,41.504,0.000
1732204954.689,0.000,-74.219,-17.090,50.293,0.000
1732204954.693,0.000,-73.242,-15.625,56.641,0.000
1732204954.697,0.000,-73.242,-17.578,16.602,0.000
1732204954.701,22.461,-70.312,-17.090,10.254,0.000
1732204954.705,2.930,-74.219,-9.277,47.363,0.000
1732204954.708,38.574,-72.754,-17.090,-0.488,0.000
1732204954.712,51.270,-66.895,-20.508,-3.906,0.000
1732204954.716,0.977,-71.777,-17.090,23.926,0.000
1732204954.720,-14.160,-74.707,-14.160,30.273,0.000
1732204954.724,-2.441,-76.660,-18.066,-2.441,0.000
1732204954.728,23.438,-75.195,-34.180,6.836,0.000
1732204954.732,35.156,-75.195,-22.949,49.805,0.000
1732204954.736,20.020,-65.430,-11.719,24.902,0.000
1732204954.740,10.742,-56.152,-7.812,-4.395,0.000
1732204954.743,13.184,-55.176,-7.324,-22.949,0.000
1732204954.748,0.000,-53.711,-9.277,-17.578,0.000
1732204954.752,0.000,-54.688,-20.996,0.000,0.000
1732204954.756,0.000,-63.477,-15.137,-16.113,0.000
1732204954.759,0.000,-59.082,2.441,-9.277,0.000
1732204954.763,0.000,-54.199,-3.906,1.953,0.000
1732204954.767,0.000,-56.152,-1.465,-9.277,0.000
1732204954.771,0.000,-60.547,2.930,4.395,0.000
1732204954.775,0.000,-65.430,-7.812,-1.953,0.000
1732204954.779,0.000,-59.570,-16.113,-20.020,0.000
1732204954.783,0.000,-62.012,-8.789,15.625,0.000
1732204954.787,0.000,-73.242,4.395,-6.836,0.000
1732204954.791,0.000,-69.336,1.953,-5.371,0.000
1732204954.794,22.461,-67.871,2.441,48.828,0.000
1732204954.798,29.297,-70.312,2.441,17.090,0.000
1732204954.802,0.000,-72.754,-2.441,2.441,0.000
1732204954.806,-24.902,-76.172,-7.812,12.207,0.000
1732204954.810,-28.320,-77.637,-2.930,-14.160,0.000
1732204954.814,-13.672,-68.848,-8.301,-20.996,0.000
1732204954.818,-1.465,-64.453,-13.672,-10.742,0.000
1732204954.822,-9.277,-66.406,-5.859,-28.809,0.000
1732204954.826,-3.906,-71.777,-4.883,-29.785,0.000
1732204954.829,-1.465,-80.566,-5.859,-34.180,0.000
1732204954.833,-12.695,-83.984,-9.766,-31.250,0.000
1732204954.837,-26.367,-84.473,-12.207,10.254,0.000
1732204954.841,-21.973,-87.402,-7.812,26.855,0.000
1732204954.845,-9.766,-87.891,-6.836,16.113,0.000
1732204954.849,-17.578,-85.449,-12.695,-7.812,0.000
1732204954.853,-11.230,-86.914,-14.648,-34.668,0.000
1732204954.857,-18.066,-91.309,-19.531,-24.414,0.000
1732204954.861,-14.160,-91.309,-23.438,-16.602,0.000
1732204954.865,-8.301,-90.332,-32.227,9.277,0.000
1732204954.869,-33.203,-93.262,-36.621,24.902,0.000
1732204954.872,-42.480,-96.191,-38.574,-34.668,0.000
1732204954.876,-12.207,-93.750,-32.227,-62.012,0.000
1732204954.880,5.859,-92.285,-33.691,-46.875,0.000
1732204954.884,-0.977,-93.750,-42.969,-52.734,0.000
1732204954.888,-22.461,-97.656,-28.320,-31.738,0.000
1732204954.892,-8.301,-87.891,-20.996,-31.250,0.000
1732204954.896,26.855,-84.473,-35.156,-40.039,0.000
1732204954.900,31.250,-87.891,-38.574,-39.551,0.000
1732204954.904,0.000,-85.938,-35.156,-19.531,0.000
1732204954.908,0.977,-100.098,-32.227,-21.484,0.000
1732204954.911,24.414,-109.375,-23.926,-4.395,0.000
1732204954.915,1.465,-101.074,-16.602,14.648,0.000
1732204954.919,-3.906,-89.844,-24.414,-16.602,0.000
1732204954.923,14.160,-86.426,-31.738,-10.742,0.000
1732204954.927,0.000,-95.703,-30.273,-3.906,0.000
1732204954.931,-6.836,-94.727,-34.180,-18.066,0.000
1732204954.935,-0.488,-88.867,-34.180,-40.039,0.000
1732204954.939,-17.578,-100.586,-29.785,-55.664,0.000
1732204954.943,-26.855,-104.980,-25.391,-13.184,0.000
1732204954.947,-20.996,-103.516,-22.461,-1.465,0.000
1732204954.951,-41.504,-101.074,-27.832,-39.551,0.000
1732204954.954,-49.316,-96.680,-25.391,-39.062,0.000
1732204954.958,-12.695,-93.750,-26.855,-13.184,0.000
1732204954.962,-12.695,-94.727,-33.691,7.324,0.000
1732204954.966,-24.414,-91.797,-33.691,5.371,0.000
1732204954.970,-30.762,-94.238,-36.621,-15.625,0.000
1732204954.974,-39.551,-99.609,-43.945,-11.719,0.000
1732204954.978,-32.715,-101.074,-42.969,10.254,0.000
1732204954.982,-15.625,-94.238,-41.992,-9.277,0.000
1732204954.986,-36.133,-91.309,-45.898,-14.160,0.000
1732204954.990,-49.316,-93.262,-42.969,16.602,0.000
1732204954.994,-26.367,-87.891,-45.410,13.184,0.000
1732204954.997,-12.695,-89.355,-40.527,13.672,0.000
1732204955.001,-12.207,-93.262,-34.180,7.812,0.000
1732204955.005,-19.043,-100.586,-36.133,-7.812,0.000
1732204955.009,-8.301,-95.703,-45.898,-5.859,0.000
1732204955.013,-25.391,-88.867,-45.410,-1.465,0.000
1732204955.017,-38.574,-88.379,-40.527,-13.672,0.000
1732204955.021,-10.254,-89.844,-47.852,-20.996,0.000
1732204955.025,-18.555,-91.797,-50.781,-36.621,0.000
1732204955.029,-34.180,-95.703,-52.734,-36.621,0.000
1732204955.033,-26.855,-99.609,-49.805,-4.395,0.000
1732204955.036,-25.391,-97.168,-50.293,-10.742,0.000
1732204955.040,-32.715,-96.191,-56.641,-8.789,0.000
1732204955.044,-43.457,-97.168,-59.570,-19.531,0.000
1732204955.048,-48.340,-96.191,-65.430,-20.508,0.000
1732204955.052,-35.156,-93.262,-67.383,11.230,0.000
1732204955.056,-18.555,-91.309,-61.523,1.465,0.000
1732204955.060,-45.898,-98.633,-59.082,-30.273,0.000
1732204955.064,-36.133,-99.609,-68.848,-44.922,0.000
1732204955.068,-5.859,-94.238,-66.406,-36.621,0.000
1732204955.071,-18.555,-92.773,-56.641,-20.020,0.000
1732204955.076,-32.227,-94.727,-54.199,3.906,0.000
1732204955.080,-24.414,-92.285,-52.734,4.395,0.000
1732204955.083,-21.973,-84.473,-56.152,-3.418,0.000
1732204955.087,-33.691,-84.473,-57.617,3.418,0.000
1732204955.091,-16.602,-85.938,-61.035,-3.418,0.000
1732204955.095,3.906,-80.078,-62.500,-3.906,0.000
1732204955.099,-5.371,-76.660,-57.617,-15.625,0.000
1732204955.103,-23.438,-78.125,-50.781,-14.160,0.000
1732204955.107,-17.090,-76.172,-44.434,13.672,0.000
1732204955.111,-17.090,-80.566,-49.805,-10.742,0.000
1732204955.115,-17.578,-85.938,-56.152,-29.297,0.000
1732204955.118,5.859,-79.102,-51.270,-2.441,0.000
1732204955.123,6.836,-80.078,-42.480,0.977,0.000
1732204955.126,-16.113,-81.055,-44.922,-9.766,0.000
1732204955.130,-5.371,-76.660,-47.363,-13.184,0.000
1732204955.134,20.020,-78.125,-34.668,-0.488,0.000
1732204955.138,23.926,-82.520,-35.156,-3.418,0.000
1732204955.142,10.742,-81.543,-44.922,-9.277,0.000
1732204955.146,-3.418,-83.008,-43.457,10.742,0.000
1732204955.150,-31.250,-91.309,-41.504,11.230,0.000
1732204955.154,-42.969,-92.285,-41.016,-3.906,0.000
1732204955.158,-35.645,-88.867,-33.691,-3.418,0.000
1732204955.161,-41.504,-90.332,-35.645,3.906,0.000
1732204955.165,-22.949,-94.238,-38.574,17.090,0.000
1732204955.169,-38.086,-89.844,-38.574,-20.508,0.000
1732204955.173,-28.320,-91.309,-38.086,-31.738,0.000
1732204955.177,-6.348,-94.727,-29.297,-8.301,0.000
1732204955.181,-24.902,-87.891,-20.508,-13.672,0.000
1732204955.185,-32.715,-91.797,-20.508,-4.395,0.000
1732204955.189,-33.691,-98.145,-17.578,-12.695,0.000
1732204955.193,-28.320,-93.750,-13.672,-33.691,0.000
1732204955.197,-16.113,-87.402,-6.836,-4.395,0.000
1732204955.201,-11.719,-89.355,8.789,13.672,0.000
1732204955.204,-20.508,-105.957,4.883,-15.625,0.000
1732204955.208,-29.785,-113.770,-7.812,-30.273,0.000
1732204955.212,-26.855,-109.375,-10.254,-33.691,0.000
1732204955.216,0.000,-111.328,-11.230,-35.156,0.000
1732204955.220,0.000,-117.188,-4.883,-37.109,0.000
1732204955.224,0.000,-113.770,-6.348,-37.109,0.000
1732204955.228,0.000,-109.375,-7.324,2.441,0.000
1732204955.232,0.000,-108.887,0.977,0.488,0.000
1732204955.236,0.000,-106.934,1.953,-11.230,0.000
1732204955.240,0.000,-104.980,7.324,-15.137,0.000
1732204955.244,0.000,-106.445,13.184,-17.090,0.000
1732204955.247,0.000,-104.980,9.277,-26.855,0.000
1732204955.251,0.000,-92.285,11.719,-35.645,0.000
1732204955.255,0.000,-92.285,18.066,-14.648,0.000
1732204955.259,0.000,-94.238,15.625,-11.230,0.000
1732204955.263,-30.762,-91.309,18.555,-14.648,0.000
1732204955.267,-7.812,-88.867,26.367,-10.742,0.000
1732204955.271,5.371,-93.750,23.926,-16.602,0.000
1732204955.275,-8.301,-95.703,20.020,-5.859,0.000
1732204955.279,6.836,-90.332,20.996,-2.441,0.000
1732204955.283,25.879,-84.961,19.531,-5.859,0.000
1732204955.287,6.836,-90.332,23.438,-2.441,0.000
1732204955.290,-27.832,-94.727,29.785,-23.438,0.000
1732204955.294,-30.762,-89.355,30.273,-31.250,0.000
1732204955.298,-47.852,-85.938,27.344,-10.742,0.000
1732204955.302,-62.988,-85.449,20.020,1.953,0.000
1732204955.306,-52.734,-85.938,11.230,0.000,0.000
1732204955.310,-34.668,-85.938,15.137,-7.324,0.000
1732204955.314,-35.645,-84.961,19.043,-19.531,0.000
1732204955.318,-40.039,-78.125,16.602,-41.504,0.000
1732204955.322,-30.273,-68.359,20.996,-36.621,0.000
1732204955.326,-62.500,-70.801,20.508,-31.738,0.000
1732204955.329,-78.125,-74.219,11.719,-42.969,0.000
1732204955.333,-66.895,-75.195,6.836,-23.438,0.000
1732204955.337,-40.039,-77.637,6.836,-16.113,0.000
1732204955.341,-28.809,-74.707,1.465,-4.395,0.000
1732204955.345,-29.785,-80.566,0.977,2.930,0.000
1732204955.349,-11.719,-85.449,-2.930,-12.695,0.000
1732204955.353,-28.809,-83.984,-7.812,-22.461,0.000
1732204955.357,-45.898,-82.520,-18.555,-55.176,0.000
1732204955.361,-50.293,-80.566,-20.508,-45.898,0.000
1732204955.365,-62.012,-79.102,-14.648,-18.066,0.000
1732204955.369,-44.434,-73.730,-12.207,-20.508,0.000
1732204955.372,-48.340,-79.590,-6.348,-24.902,0.000
1732204955.376,-73.730,-87.402,-14.160,-30.762,0.000
1732204955.380,-49.316,-85.938,-27.832,-25.391,0.000
1732204955.384,-41.016,-80.566,-31.250,-18.066,0.000
1732204955.388,-37.598,-79.102,-29.297,-17.578,0.000
1732204955.392,-29.297,-83.984,-30.273,-28.809,0.000
1732204955.396,-43.457,-81.055,-30.762,-60.059,0.000
1732204955.400,-49.805,-78.125,-33.691,-35.645,0.000
1732204955.404,-55.176,-77.637,-36.621,-7.812,0.000
1732204955.408,-39.062,-77.148,-34.668,-20.996,0.000
1732204955.411,-37.598,-75.684,-40.039,-33.691,0.000
1732204955.415,-7.324,-76.660,-35.645,-54.688,0.000
1732204955.419,-4.883,-73.730,-36.621,-39.551,0.000
1732204955.423,-32.715,-66.895,-49.805,-19.043,0.000
1732204955.427,-29.297,-67.383,-48.340,-33.691,0.000
1732204955.431,-44.922,-77.637,-40.039,-31.738,0.000
1732204955.435,-51.758,-68.359,-41.016,-20.020,0.000
1732204955.439,-51.270,-58.105,-44.922,-30.273,0.000
1732204955.443,-36.621,-59.570,-50.781,-30.762,0.000
1732204955.447,-44.434,-54.199,-60.059,-31.738,0.000
1732204955.451,0.000,-55.176,-53.711,-14.648,0.000
1732204955.455,0.000,-62.500,-46.387,-5.371,0.000
1732204955.458,0.000,-60.059,-55.176,-27.344,0.000
1732204955.462,0.000,-59.082,-60.059,-52.246,0.000
1732204955.466,0.000,-55.664,-57.617,-79.102,0.000
1732204955.470,0.000,-47.363,-36.133,-58.594,0.000
1732204955.474,0.000,-52.734,-20.996,-52.734,0.000
1732204955.478,0.000,-57.617,-8.301,-83.984,0.000
1732204955.482,0.000,-54.688,3.906,-65.430,0.000
1732204955.486,0.000,-58.594,1.465,-41.504,0.000
1732204955.490,0.000,-65.918,-1.465,-47.363,0.000
1732204955.493,0.000,-65.430,5.859,-53.223,0.000
1732204955.498,-42.969,-64.941,14.648,-31.250,0.000
1732204955.501,-19.043,-67.871,19.043,-15.625,0.000
1732204955.505,-28.320,-66.895,22.949,-20.508,0.000
1732204955.509,-62.988,-64.453,19.043,-13.672,0.000
1732204955.513,-105.469,-62.500,24.902,-31.250,0.000
1732204955.517,-128.418,-52.246,39.551,-30.762,0.000
1732204955.521,-106.934,-41.016,37.109,-52.734,0.000
1732204955.525,-117.676,-45.898,40.527,-96.680,0.000
1732204955.529,-120.117,-56.152,42.969,-86.426,0.000
1732204955.533,-89.355,-48.340,37.109,-77.637,0.000
1732204955.536,-87.891,-44.922,50.781,-86.914,0.000
1732204955.540,-103.516,-51.270,53.223,-64.941,0.000
1732204955.544,-111.328,-47.363,49.805,-49.316,0.000
1732204955.548,-130.371,-44.434,61.523,-41.992,0.000
1732204955.552,-145.996,-43.457,54.688,-41.016,0.000
1732204955.556,-185.059,-47.852,52.246,-41.504,0.000
1732204955.560,-225.586,-48.828,58.105,-30.762,0.000
1732204955.564,-193.848,-42.480,52.734,-93.262,0.000
1732204955.568,-162.598,-40.039,56.152,-165.039,0.000
1732204955.572,-161.621,-45.410,62.500,-146.973,0.000
1732204955.576,-152.832,-56.641,62.012,-87.891,0.000
1732204955.579,-185.547,-63.477,61.035,-59.570,0.000
1732204955.583,-188.965,-54.688,59.082,-24.902,0.000
1732204955.587,-172.363,-51.758,57.617,10.254,0.000
1732204955.591,-188.477,-48.828,50.293,-104.004,0.000
1732204955.595,-177.246,-41.504,43.945,-207.520,0.000
1732204955.599,-150.391,-42.480,42.480,-142.090,0.000
1732204955.603,-151.855,-39.062,51.758,-90.820,0.000
1732204955.607,-187.500,-42.969,66.895,-99.609,0.000
1732204955.611,-195.312,-44.922,67.871,-140.625,0.000
1732204955.615,-185.059,-33.691,73.242,-141.113,0.000
1732204955.619,-212.402,-31.738,72.754,-173.828,0.000
1732204955.622,-233.398,-29.785,61.035,-203.613,0.000
1732204955.626,-207.031,-20.020,59.082,-132.812,0.000
1732204955.630,-217.285,-18.555,70.801,-81.055,0.000
1732204955.634,-245.605,-21.484,75.195,-143.066,0.000
1732204955.638,-219.238,-17.090,64.941,-250.977,0.000
1732204955.642,-228.516,-18.555,74.219,-300.293,0.000
1732204955.646,-279.297,-18.066,87.891,-263.184,0.000
1732204955.650,-266.602,-8.789,84.961,-223.633,0.000
1732204955.654,-247.559,-0.488,74.707,-236.328,0.000
1732204955.658,-302.734,1.465,69.336,-242.676,0.000
1732204955.662,-384.766,1.953,83.496,-192.383,0.000
1732204955.665,-401.855,2.441,94.238,-147.949,0.000
1732204955.669,-409.180,1.953,85.938,-157.227,0.000
1732204955.673,-433.594,5.859,89.355,-195.312,0.000
1732204955.677,-419.922,1.953,94.238,-245.605,0.000
1732204955.681,-402.344,3.906,97.656,-260.742,0.000
1732204955.685,-390.625,6.348,95.215,-210.938,0.000
1732204955.689,-445.312,-0.977,92.285,-215.332,0.000
1732204955.693,-463.379,2.930,90.332,-321.289,0.000
1732204955.697,-450.684,-1.465,79.102,-317.871,0.000
1732204955.701,-454.590,0.488,93.750,-270.996,0.000
1732204955.705,-432.617,10.742,107.422,-261.230,0.000
1732204955.708,-435.547,-1.953,97.168,-256.836,0.000
1732204955.712,-407.227,-4.883,92.773,-231.445,0.000
1732204955.716,-381.348,-0.977,95.215,-205.566,0.000
1732204955.720,-371.094,4.395,102.051,-191.406,0.000
1732204955.724,-361.816,2.930,104.492,-144.531,0.000
1732204955.728,-375.977,-12.695,105.469,-94.238,0.000
1732204955.732,-376.465,-29.297,103.516,-80.566,0.000
1732204955.736,-338.867,-31.250,92.285,-125.488,0.000
1732204955.740,-296.875,-27.344,90.820,-191.406,0.000
1732204955.744,-298.340,-34.180,102.051,-136.719,0.000
1732204955.747,-302.734,-41.504,93.262,38.086,0.000
1732204955.751,-283.203,-44.922,84.961,84.473,0.000
1732204955.755,-265.625,-36.133,86.914,-135.254,0.000
1732204955.759,-231.445,-32.227,82.520,-301.758,0.000
1732204955.763,-228.027,-33.691,84.473,-234.863,0.000
1732204955.767,-251.465,-33.691,88.379,-136.719,0.000
1732204955.771,-238.281,-32.715,86.914,-78.125,0.000
1732204955.775,-204.102,-33.691,82.031,-115.723,0.000
1732204955.779,-197.266,-36.133,75.684,-186.523,0.000
1732204955.783,-210.449,-31.738,82.520,-147.949,0.000
1732204955.787,-197.754,-29.785,83.496,-92.773,0.000
1732204955.790,-176.758,-32.227,80.078,-35.645,0.000
1732204955.794,-208.496,-35.156,84.473,-30.273,0.000
1732204955.798,-192.871,-30.762,83.496,-20.996,0.000
1732204955.802,-175.781,-29.785,97.168,16.113,0.000
1732204955.806,-187.988,-23.438,106.445,-6.836,0.000
1732204955.810,-145.508,-15.137,106.445,-41.504,0.000
1732204955.814,-137.695,-12.695,118.164,-106.445,0.000
1732204955.818,-137.695,-16.113,116.699,-134.277,0.000
1732204955.822,-93.750,-19.043,118.164,-25.391,0.000
1732204955.826,0.000,-12.207,125.977,25.391,0.000
1732204955.830,0.000,-15.625,131.348,15.137,0.000
1732204955.833,0.000,-13.672,127.441,-20.508,0.000
1732204955.837,0.000,-3.906,115.723,-140.137,0.000
1732204955.841,0.000,-0.488,123.535,-134.766,0.000
1732204955.845,0.000,-6.348,126.465,-57.129,0.000
1732204955.849,0.000,-11.230,119.629,-38.574,0.000
1732204955.853,0.000,-10.742,125.977,-43.945,0.000
1732204955.857,0.000,-10.742,124.023,-42.969,0.000
1732204955.861,0.000,-4.883,119.141,-37.109,0.000
1732204955.865,0.000,-3.906,126.465,-19.531,0.000
1732204955.868,0.000,-1.953,126.953,-4.883,0.000
1732204955.873,-52.246,-7.324,133.789,-8.789,0.000
1732204955.876,-77.148,-17.578,137.207,-18.066,0.000
1732204955.880,-94.727,-6.348,125.488,-37.598,0.000
1732204955.884,-71.289,-5.371,128.906,-21.973,0.000
1732204955.888,-75.684,-9.766,133.301,-14.160,0.000
1732204955.892,-92.285,-4.395,127.441,-44.434,0.000
1732204955.896,-77.637,3.906,115.723,-117.676,0.000
1732204955.900,-59.082,-0.488,126.953,-109.863,0.000
1732204955.904,-64.453,-20.020,133.301,-70.801,0.000
1732204955.908,-54.688,-26.367,124.512,-106.934,0.000
1732204955.912,-41.992,-21.973,137.207,-120.117,0.000
1732204955.915,-27.344,-17.578,147.461,-115.234,0.000
1732204955.919,-20.020,-15.137,157.715,-93.262,0.000
1732204955.923,-38.574,-10.254,162.109,-96.191,0.000
1732204955.927,-57.617,-13.672,174.316,-102.539,0.000
1732204955.931,-51.758,-15.137,192.871,-91.309,0.000
1732204955.935,-5.859,3.906,196.289,-68.848,0.000
1732204955.939,-33.203,5.371,200.195,-63.965,0.000
1732204955.943,-149.902,-10.742,201.660,-119.141,0.000
1732204955.947,-169.434,-14.160,211.914,-115.234,0.000
1732204955.951,-107.910,-18.555,218.262,-58.105,0.000
1732204955.955,-72.266,-7.812,225.586,-45.410,0.000
1732204955.958,-64.453,22.461,217.773,-117.188,0.000
1732204955.962,-63.965,28.320,193.359,-165.039,0.000
1732204955.966,-118.652,11.719,206.055,-141.602,0.000
1732204955.970,-175.293,9.766,219.727,-183.105,0.000
1732204955.974,-157.227,33.203,208.008,-224.121,0.000
1732204955.978,-150.879,45.410,201.172,-199.707,0.000
1732204955.982,-173.340,52.246,192.871,-207.031,0.000
1732204955.986,-169.434,55.176,196.289,-219.238,0.000
1732204955.990,-231.445,54.199,201.660,-239.258,0.000
1732204955.994,-263.184,63.965,199.219,-251.465,0.000
1732204955.998,-259.766,80.566,193.848,-255.859,0.000
1732204956.001,-281.738,93.750,187.012,-256.836,0.000
1732204956.005,-301.758,98.633,189.941,-278.320,0.000
1732204956.009,-252.930,98.145,194.824,-286.621,0.000
1732204956.013,0.000,96.191,192.871,-292.480,0.000
1732204956.017,0.000,108.887,170.898,-300.781,0.000
1732204956.021,0.000,114.258,142.578,-306.152,0.000
1732204956.025,0.000,115.234,128.906,-309.570,0.000
1732204956.029,0.000,111.328,128.906,-304.199,0.000
1732204956.033,0.000,104.492,129.395,-303.711,0.000
1732204956.037,0.000,109.375,118.164,-301.758,0.000
1732204956.041,0.000,104.980,104.980,-309.570,0.000
1732204956.044,0.000,104.492,94.238,-310.547,0.000
1732204956.048,0.000,103.516,95.703,-287.598,0.000
1732204956.052,0.000,90.820,95.215,-268.555,0.000
1732204956.056,0.000,81.543,79.102,-275.879,0.000
1732204956.060,-287.598,84.473,62.012,-263.184,0.000
1732204956.064,-262.695,83.496,64.453,-231.934,0.000
1732204956.068,-233.887,74.707,61.523,-231.445,0.000
1732204956.072,-222.168,69.336,54.199,-195.312,0.000
1732204956.076,-234.375,61.035,60.547,-201.660,0.000
1732204956.080,-252.930,50.781,58.105,-238.281,0.000
1732204956.083,-229.492,51.758,48.828,-225.586,0.000
1732204956.087,-192.383,50.293,43.945,-179.199,0.000
1732204956.091,-201.172,45.410,44.434,-145.996,0.000
1732204956.095,-185.059,48.828,47.363,-126.465,0.000
1732204956.099,-176.270,51.758,31.738,-146.484,0.000
1732204956.103,-158.691,42.969,25.391,-132.812,0.000
1732204956.107,-145.508,40.039,28.320,-91.309,0.000
1732204956.111,-141.113,37.109,24.902,-89.844,0.000
1732204956.115,-106.934,27.344,27.344,-42.480,0.000
1732204956.119,-89.844,33.203,22.949,-3.906,0.000
1732204956.123,-90.332,25.879,7.812,3.418,0.000
1732204956.126,-94.238,15.625,0.000,21.484,0.000
1732204956.130,-102.539,14.648,-2.441,42.969,0.000
1732204956.134,-73.242,16.113,-9.277,62.012,0.000
1732204956.138,-58.105,11.719,-10.742,78.613,0.000
1732204956.142,-52.246,-0.977,-16.113,76.660,0.000
1732204956.146,4.395,-2.930,-20.508,89.355,0.000
1732204956.150,35.156,-7.324,-20.996,147.949,0.000
1732204956.154,20.996,-17.578,-19.531,159.668,0.000
1732204956.158,21.484,-21.484,-11.719,114.258,0.000
1732204956.162,41.504,-25.879,-5.371,75.195,0.000
1732204956.165,61.523,-31.738,-8.789,93.750,0.000
1732204956.169,81.055,-40.527,-16.602,151.367,0.000
1732204956.173,85.938,-47.852,-15.137,132.324,0.000
1732204956.177,84.961,-56.641,-10.254,126.465,0.000
1732204956.181,68.359,-66.406,-13.184,122.070,0.000
1732204956.185,44.922,-65.430,-11.230,99.121,0.000
1732204956.189,37.598,-69.824,-1.953,135.742,0.000
1732204956.193,13.672,-76.660,-11.719,133.301,0.000
1732204956.197,15.137,-78.613,-18.555,111.816,0.000
1732204956.201,36.133,-84.473,-13.184,109.863,0.000
1732204956.205,56.152,-93.262,-8.789,130.859,0.000
1732204956.208,79.590,-96.191,-12.207,128.418,0.000
1732204956.212,66.895,-95.215,-17.090,99.121,0.000
1732204956.216,59.082,-95.215,-12.695,99.121,0.000
1732204956.220,60.059,-104.492,-6.348,117.676,0.000
1732204956.224,66.895,-102.539,-17.090,92.773,0.000
1732204956.228,64.453,-91.797,-20.020,54.199,0.000
1732204956.232,61.523,-102.051,0.488,65.918,0.000
1732204956.236,76.172,-108.887,5.371,66.406,0.000
1732204956.240,87.402,-100.098,-3.906,48.828,0.000
1732204956.244,69.336,-98.633,-1.953,56.152,0.000
1732204956.248,57.617,-97.168,1.465,58.105,0.000
1732204956.252,73.730,-92.773,8.301,54.199,0.000
1732204956.255,76.172,-95.215,3.418,46.875,0.000
1732204956.259,74.707,-94.238,28.809,33.203,0.000
1732204956.263,83.496,-86.426,83.984,31.738,0.000
1732204956.267,72.754,-85.449,85.449,47.852,0.000
1732204956.271,37.109,-93.262,79.590,31.738,0.000
1732204956.275,24.902,-86.426,83.496,16.113,0.000
1732204956.279,44.434,-76.172,78.613,20.996,0.000
1732204956.283,63.965,-78.125,77.148,30.273,0.000
1732204956.287,47.852,-78.613,71.289,18.066,0.000
1732204956.290,52.246,-81.055,69.824,9.277,0.000
1732204956.295,54.688,-75.684,71.289,21.973,0.000
1732204956.298,39.062,-71.777,65.430,21.484,0.000
1732204956.302,56.152,-72.266,67.383,24.902,0.000
1732204956.306,53.223,-70.312,71.777,31.738,0.000
1732204956.310,50.781,-65.918,70.312,17.578,0.000
1732204956.314,56.152,-61.523,64.453,14.648,0.000
1732204956.318,59.570,-68.848,63.965,15.137,0.000
1732204956.322,59.082,-71.289,61.523,15.625,0.000
1732204956.326,42.480,-59.082,51.758,19.043,0.000
1732204956.330,31.250,-57.129,46.875,10.742,0.000
1732204956.333,14.648,-61.523,46.875,-2.441,0.000
1732204956.337,8.789,-59.570,45.898,2.930,0.000
1732204956.341,0.000,-54.688,51.270,9.277,0.000
1732204956.345,0.000,-46.875,48.340,0.488,0.000
1732204956.349,0.000,-41.504,41.504,10.254,0.000
1732204956.353,0.000,-48.340,45.898,18.066,0.000
1732204956.357,0.000,-47.363,41.016,13.184,0.000
1732204956.361,0.000,-40.527,31.250,3.418,0.000
1732204956.365,0.000,-42.969,29.785,0.488,0.000
1732204956.369,0.000,-43.457,33.203,2.441,0.000
1732204956.373,0.000,-48.828,38.086,20.508,0.000
1732204956.376,0.000,-50.781,36.621,-10.742,0.000
1732204956.380,0.000,-42.969,34.180,-35.156,0.000
1732204956.384,0.000,-36.621,31.738,-36.621,0.000
1732204956.388,5.371,-37.598,29.297,-22.461,0.000
1732204956.392,11.230,-44.922,25.879,-11.230,0.000
1732204956.396,37.109,-40.527,23.926,-23.438,0.000
1732204956.400,27.832,-36.621,26.367,-16.602,0.000
1732204956.404,-3.418,-43.457,28.320,9.766,0.000
1732204956.407,-11.230,-35.156,31.738,22.949,0.000
1732204956.411,-3.906,-28.809,27.344,-19.531,0.000
1732204956.415,3.418,-38.086,21.484,-42.969,0.000
1732204956.419,-6.348,-32.715,15.625,-28.320,0.000
1732204956.423,-2.441,-26.855,19.531,-39.062,0.000
1732204956.427,11.230,-28.320,26.367,-35.156,0.000
1732204956.431,9.277,-26.367,20.996,-40.039,0.000
1732204956.435,-22.461,-25.391,21.973,-46.387,0.000
1732204956.439,-12.207,-26.855,20.508,-40.527,0.000
1732204956.443,-10.742,-26.855,13.672,-46.387,0.000
1732204956.446,-15.625,-21.484,11.230,-60.059,0.000
1732204956.450,-14.648,-26.367,10.742,-45.898,0.000
1732204956.454,-28.809,-34.180,8.789,-34.668,0.000
1732204956.458,-18.555,-25.879,4.395,-44.922,0.000
1732204956.462,-1.465,-27.344,2.441,-49.316,0.000
1732204956.466,-6.348,-32.715,4.883,-59.570,0.000
1732204956.470,-4.883,-26.855,4.883,-53.711,0.000
1732204956.474,-6.348,-29.297,1.465,-39.551,0.000
1732204956.478,-9.277,-37.109,6.836,-27.344,0.000
1732204956.482,-9.277,-33.203,8.789,-36.133,0.000
1732204956.486,5.371,-24.902,0.000,-94.727,0.000
1732204956.489,-1.465,-32.227,-3.906,-98.633,0.000
1732204956.493,-18.066,-41.016,-1.953,-79.590,0.000
1732204956.497,5.859,-40.039,9.277,-97.656,0.000
1732204956.501,11.719,-32.715,14.648,-79.590,0.000
1732204956.505,-6.348,-31.250,1.465,-61.523,0.000
1732204956.509,-9.277,-28.320,-3.418,-62.988,0.000
1732204956.513,-13.184,-29.297,4.395,-45.898,0.000
1732204956.517,-22.949,-31.738,7.324,-29.785,0.000
1732204956.521,-33.691,-32.715,5.371,-22.949,0.000
1732204956.524,-17.578,-34.668,-0.488,-30.273,0.000
1732204956.529,0.000,-34.180,0.977,-58.105,0.000
1732204956.533,0.000,-27.832,3.418,-73.242,0.000
1732204956.536,0.000,-28.320,2.441,-76.660,0.000
1732204956.540,0.000,-26.367,5.859,-68.848,0.000
1732204956.544,0.000,-30.273,15.625,-48.340,0.000
1732204956.548,0.000,-30.762,17.578,-56.641,0.000
1732204956.552,0.000,-19.043,4.395,-57.617,0.000
1732204956.556,0.000,-21.484,-4.395,-46.875,0.000
1732204956.560,0.000,-18.066,-0.488,-62.012,0.000
1732204956.564,0.000,-18.555,11.230,-58.105,0.000
1732204956.568,0.000,-21.973,16.602,-40.039,0.000
1732204956.571,0.000,-26.855,9.766,-57.129,0.000
1732204956.575,26.855,-37.598,3.418,-67.871,0.000
1732204956.579,41.504,-33.203,8.789,-52.734,0.000
1732204956.583,69.824,-21.484,12.695,-55.664,0.000
1732204956.587,37.109,-26.367,9.277,-52.734,0.000
1732204956.591,8.301,-35.156,14.648,-22.949,0.000
1732204956.595,-8.301,-34.180,26.367,-23.438,0.000
1732204956.599,8.301,-28.320,25.391,-40.527,0.000
1732204956.603,30.273,-33.691,27.832,-36.621,0.000
1732204956.607,30.762,-40.527,20.996,-39.551,0.000
1732204956.610,42.480,-44.434,23.438,-10.254,0.000
1732204956.614,27.344,-35.156,27.344,-20.508,0.000
1732204956.618,5.859,-14.648,15.625,-86.426,0.000
1732204956.622,-3.418,-13.672,19.531,-101.562,0.000
1732204956.626,-16.113,-12.207,24.414,-73.730,0.000
1732204956.630,-28.809,-11.230,35.156,-79.102,0.000
1732204956.634,-47.852,-19.531,29.297,-105.469,0.000
1732204956.638,-27.832,-17.578,20.020,-86.426,0.000
1732204956.642,-12.207,-13.672,30.273,-86.426,0.000
1732204956.646,-42.969,-15.137,31.250,-116.211,0.000
1732204956.650,-50.293,-15.137,26.855,-129.395,0.000
1732204956.654,-35.645,-11.719,15.625,-115.723,0.000
1732204956.657,-20.508,-9.277,13.184,-98.633,0.000
1732204956.661,-10.742,-13.184,22.461,-106.445,0.000
1732204956.665,8.789,-18.066,20.996,-94.238,0.000
1732204956.669,34.180,-13.672,16.113,-82.031,0.000
1732204956.673,2.930,-14.648,13.672,-60.059,0.000
1732204956.677,5.371,-18.066,15.137,-38.574,0.000
1732204956.681,23.926,-12.695,22.461,-53.223,0.000
1732204956.685,2.441,-10.742,25.391,-49.805,0.000
1732204956.689,11.230,-6.348,19.043,-43.945,0.000
1732204956.693,23.926,-6.348,12.695,-35.156,0.000
1732204956.697,22.949,-11.719,15.137,5.859,0.000
1732204956.700,22.461,-9.277,20.020,15.137,0.000
1732204956.704,14.648,-2.930,14.160,26.855,0.000
1732204956.708,11.230,-10.742,13.184,23.438,0.000
1732204956.712,22.461,-16.602,9.277,0.488,0.000
1732204956.716,51.270,-12.695,4.395,-18.066,0.000
1732204956.720,68.359,-8.789,4.395,-34.668,0.000
1732204956.724,77.148,-8.789,-0.488,-37.598,0.000
1732204956.728,72.266,-17.090,-4.395,-18.066,0.000
1732204956.732,24.902,-18.555,-1.953,-21.484,0.000
1732204956.736,5.371,-14.648,-2.930,-20.508,0.000
1732204956.740,15.137,-19.531,-3.906,-10.254,0.000
1732204956.743,44.434,-21.484,-11.719,-30.273,0.000
1732204956.747,79.102,-21.484,-12.207,-38.574,0.000
1732204956.751,101.562,-25.879,-22.461,-31.738,0.000
1732204956.755,123.047,-25.391,-57.129,-8.789,0.000
1732204956.759,101.074,-28.809,-63.965,-10.254,0.000
1732204956.763,0.000,-31.738,-53.223,-43.457,0.000
1732204956.767,0.000,-27.832,-43.945,-14.160,0.000
1732204956.771,0.000,-23.438,-47.363,-1.465,0.000
1732204956.775,0.000,-24.902,-47.852,-41.992,0.000
1732204956.779,0.000,-26.855,-50.781,-36.621,0.000
1732204956.783,0.000,-30.762,-53.711,-29.785,0.000
1732204956.786,0.000,-30.273,-57.129,-29.297,0.000
1732204956.790,0.000,-21.484,-61.523,6.836,0.000
1732204956.794,0.000,-22.461,-55.176,13.184,0.000
1732204956.798,0.000,-22.949,-55.664,0.000,0.000
1732204956.802,0.000,-19.531,-59.570,-23.438,0.000
1732204956.806,0.000,-15.137,-63.477,-37.598,0.000
1732204956.810,93.750,-21.484,-55.664,-57.617,0.000
1732204956.814,16.602,-33.691,-53.711,-59.082,0.000
1732204956.818,-17.090,-31.250,-63.477,-33.203,0.000
1732204956.822,-1.953,-24.414,-59.082,-21.973,0.000
1732204956.826,29.297,-21.973,-54.688,-27.832,0.000
1732204956.829,78.613,-25.879,-47.852,-13.184,0.000
1732204956.833,107.422,-20.508,-40.039,0.977,0.000
1732204956.837,26.855,-3.418,-36.621,-37.109,0.000
1732204956.841,-62.500,0.488,-38.574,-46.875,0.000
1732204956.845,-70.312,3.906,-48.340,-33.691,0.000
1732204956.849,-52.734,10.742,-50.293,-51.270,0.000
1732204956.853,-11.719,11.230,-45.410,-90.820,0.000
1732204956.857,22.949,13.184,-44.922,-118.652,0.000
1732204956.861,58.594,23.926,-40.527,-128.906,0.000
1732204956.865,38.086,31.738,-37.598,-156.738,0.000
1732204956.868,-29.785,39.062,-40.527,-147.949,0.000
1732204956.872,-60.547,42.969,-41.992,-111.328,0.000
1732204956.876,-175.293,37.109,-31.738,-98.633,0.000
1732204956.880,-226.074,34.668,-35.156,-80.566,0.000
1732204956.884,-163.086,36.133,-41.016,-52.734,0.000
1732204956.888,-147.949,40.527,-30.273,-67.383,0.000
1732204956.892,-118.164,44.434,-36.133,-115.234,0.000
1732204956.896,-87.891,41.016,-29.297,-124.512,0.000
1732204956.900,-73.242,46.387,-30.762,-131.348,0.000
1732204956.904,-57.617,52.734,-35.156,-188.965,0.000
1732204956.908,-63.477,46.875,-18.066,-235.352,0.000
1732204956.911,-51.270,44.922,-27.832,-206.055,0.000
1732204956.915,-28.809,42.969,-29.297,-161.621,0.000
1732204956.919,-23.926,36.621,-11.719,-160.156,0.000
1732204956.923,51.758,47.852,-16.602,-141.113,0.000
1732204956.927,111.328,52.734,-20.508,-141.602,0.000
1732204956.931,110.352,41.992,-19.043,-129.883,0.000
1732204956.935,17.578,38.574,-12.695,-116.699,0.000
1732204956.939,-103.516,38.574,-10.254,-113.281,0.000
1732204956.943,-125.488,33.203,-12.207,-76.172,0.000
1732204956.946,-111.328,26.367,-11.230,-67.871,0.000
1732204956.950,-99.121,24.902,0.000,-99.121,0.000
1732204956.954,-109.375,12.695,0.000,-80.078,0.000
1732204956.958,-118.164,1.953,0.000,-65.918,0.000
1732204956.962,-100.586,-2.930,0.000,-62.500,0.000
1732204956.966,-87.891,-2.930,0.000,-68.848,0.000
1732204956.970,-61.523,0.488,0.000,-84.473,0.000
1732204956.974,-34.180,-6.836,0.000,-77.148,0.000
1732204956.978,-2.930,-18.066,0.000,-87.891,0.000
1732204956.982,-25.391,-20.020,0.000,-59.570,0.000
1732204956.986,-68.359,-17.090,0.000,-50.293,0.000
1732204956.989,36.621,-15.625,0.000,-45.410,0.000
1732204956.993,182.617,-15.137,0.000,-40.527,0.000
1732204956.997,0.000,-13.184,-6.836,-60.059,0.000
1732204957.001,0.000,-24.414,-0.977,-66.406,0.000
1732204957.005,0.000,-41.504,-0.488,-74.219,0.000
1732204957.009,0.000,-42.969,1.953,-54.688,0.000
1732204957.013,0.000,-48.828,0.000,-47.363,0.000
1732204957.017,0.000,-50.781,-3.906,-57.129,0.000
1732204957.021,0.000,-43.457,-0.977,-52.246,0.000
1732204957.025,0.000,-41.504,2.930,-31.738,0.000
1732204957.029,0.000,-38.086,10.254,-15.625,0.000
1732204957.032,0.000,-36.621,7.324,-45.898,0.000
1732204957.036,0.000,-39.551,-1.953,-61.035,0.000
1732204957.040,0.000,-45.898,0.488,-46.387,0.000
1732204957.044,42.969,-42.969,3.906,-23.926,0.000
1732204957.048,44.922,-39.551,5.371,-24.902,0.000
1732204957.052,25.879,-48.828,6.836,-21.484,0.000
1732204957.056,116.699,-46.875,1.465,-32.715,0.000
1732204957.060,289.551,-38.086,52.734,-35.156,0.000
1732204957.064,233.887,-41.016,92.773,-19.043,0.000
1732204957.068,-40.527,-54.199,75.684,-34.668,0.000
1732204957.072,-157.227,-60.059,79.590,0.000,0.000
1732204957.075,-121.582,-54.199,78.125,-2.930,0.000
1732204957.079,-24.414,-55.176,67.383,-58.594,0.000
1732204957.083,-67.871,-59.570,55.664,-69.336,0.000
1732204957.087,-164.551,-72.266,60.547,-19.531,0.000
1732204957.091,-145.508,-79.102,64.453,12.695,0.000
1732204957.095,-92.773,-61.523,42.969,-37.109,0.000
1732204957.099,-45.410,-48.340,32.227,-58.105,0.000
1732204957.103,-27.832,-53.223,33.203,-75.684,0.000
1732204957.107,-10.254,-51.758,36.133,-89.355,0.000
1732204957.111,-30.762,-46.387,39.062,-60.547,0.000
1732204957.115,-69.824,-53.223,41.992,-28.320,0.000
1732204957.118,-84.473,-55.664,37.109,-31.250,0.000
1732204957.122,-99.121,-53.223,30.273,-69.824,0.000
1732204957.126,-69.824,-51.758,40.039,-61.035,0.000
1732204957.130,29.785,-46.875,33.203,-56.641,0.000
1732204957.134,59.570,-43.945,32.227,-64.453,0.000
1732204957.138,-120.117,-48.340,52.246,-35.645,0.000
1732204957.142,-272.461,-56.152,60.547,-20.996,0.000
1732204957.146,-246.094,-54.688,55.664,-23.438,0.000
1732204957.150,-166.504,-53.223,63.477,-22.949,0.000
1732204957.154,-137.207,-53.711,69.824,17.090,0.000
1732204957.158,-146.973,-52.246,68.359,57.129,0.000
1732204957.161,-164.062,-62.012,73.730,-5.859,0.000
1732204957.165,-130.859,-50.293,64.453,-32.227,0.000
1732204957.169,-54.199,-26.855,52.246,-64.941,0.000
1732204957.173,-60.059,-42.969,75.684,-66.895,0.000
1732204957.177,-93.750,-49.316,102.051,-4.883,0.000
1732204957.181,-111.816,-37.598,90.820,-56.152,0.000
1732204957.185,-118.652,-47.852,94.238,-81.055,0.000
1732204957.189,-119.141,-46.387,104.980,-48.340,0.000
1732204957.193,-129.395,-33.203,106.934,-74.219,0.000
1732204957.197,-135.254,-37.598,115.234,-61.035,0.000
1732204957.200,-55.176,-41.992,119.629,-24.414,0.000
1732204957.204,-27.344,-41.504,124.023,-27.832,0.000
1732204957.208,23.926,-27.832,129.395,-25.391,0.000
1732204957.212,37.598,-24.902,133.301,-23.438,0.000
1732204957.216,-102.539,-38.574,142.090,-9.277,0.000
1732204957.220,-124.023,-36.621,152.344,8.301,0.000
1732204957.224,-118.164,-34.180,152.344,-15.137,0.000
1732204957.228,-84.961,-24.414,151.367,-44.922,0.000
1732204957.232,-38.574,-15.625,144.531,-42.480,0.000
1732204957.236,-82.031,-20.508,145.020,-1.465,0.000
1732204957.240,-125.488,-25.391,155.762,-19.531,0.000
1732204957.243,-85.938,-25.391,146.484,-47.363,0.000
1732204957.247,-53.223,-17.090,136.230,-17.578,0.000
1732204957.251,-57.617,-11.719,141.602,-20.020,0.000
1732204957.255,-17.578,-4.395,134.277,-28.809,0.000
1732204957.259,14.648,1.465,118.652,-21.973,0.000
1732204957.263,7.812,-12.695,123.535,-21.484,0.000
1732204957.267,15.137,-9.277,131.836,-5.371,0.000
1732204957.271,12.695,6.348,124.023,-19.531,0.000
1732204957.275,45.410,2.930,115.234,-4.883,0.000
1732204957.279,69.336,3.906,118.652,-3.418,0.000
1732204957.282,34.180,2.930,112.793,-52.734,0.000
1732204957.286,-14.160,-5.371,107.422,-57.617,0.000
1732204957.290,-31.738,-3.906,107.910,-18.066,0.000
1732204957.294,-40.039,-9.766,109.863,-21.484,0.000
1732204957.298,-37.109,-10.254,102.051,-62.012,0.000
1732204957.302,-60.547,-4.883,96.680,-88.379,0.000
1732204957.306,-61.035,-3.906,99.121,-104.004,0.000
1732204957.310,-23.438,-3.418,94.727,-105.469,0.000
1732204957.314,-39.551,-3.906,102.539,-80.078,0.000
1732204957.318,-111.328,-4.395,109.375,-78.613,0.000
1732204957.321,-108.398,-6.348,106.934,-62.012,0.000
1732204957.325,-47.363,-4.883,95.215,-58.594,0.000
1732204957.329,-33.203,-9.277,90.332,-103.027,0.000
1732204957.333,-54.199,-10.254,101.074,-89.355,0.000
1732204957.337,-108.398,-15.137,102.051,-43.457,0.000
1732204957.341,-178.711,-26.855,91.797,-58.594,0.000
1732204957.345,-105.957,-20.996,92.773,-62.988,0.000
1732204957.349,-3.418,-15.137,91.797,-46.875,0.000
1732204957.353,41.504,-11.230,87.402,-28.320,0.000
1732204957.357,-12.695,-19.531,83.008,-16.602,0.000
1732204957.360,-135.742,-37.598,93.262,-13.672,0.000
1732204957.364,-187.988,-40.527,110.352,29.785,0.000
1732204957.368,-170.410,-29.785,109.863,57.617,0.000
1732204957.372,-154.785,-32.227,89.355,40.039,0.000
1732204957.376,-126.953,-30.762,72.266,20.996,0.000
1732204957.380,-108.398,-27.832,70.801,61.523,0.000
1732204957.384,-113.770,-49.805,87.891,73.730,0.000
1732204957.388,-91.797,-48.828,89.355,31.738,0.000
1732204957.392,-47.363,-25.391,64.453,41.016,0.000
1732204957.396,-42.480,-25.879,68.359,100.586,0.000
1732204957.400,-85.938,-25.879,67.383,99.609,0.000
1732204957.403,-107.910,-31.250,67.383,105.469,0.000
1732204957.407,-80.566,-40.039,88.867,137.207,0.000
1732204957.411,-7.812,-36.133,80.566,58.105,0.000
1732204957.415,67.383,-24.414,68.359,-2.930,0.000
1732204957.419,0.000,-23.926,0.000,13.184,0.000
1732204957.423,0.000,-39.551,0.000,26.855,0.000
1732204957.427,0.000,-36.133,0.000,31.738,0.000
1732204957.431,0.000,-31.738,0.000,53.223,0.000
1732204957.435,0.000,-40.039,0.000,51.270,0.000
1732204957.439,0.000,-21.973,0.000,20.020,0.000
1732204957.443,0.000,-25.879,0.000,38.574,0.000
1732204957.446,0.000,-45.410,0.000,40.527,0.000
1732204957.450,0.000,-43.945,0.000,48.828,0.000
1732204957.454,0.000,-47.852,0.000,70.801,0.000
1732204957.458,0.000,-42.969,0.000,76.172,0.000
1732204957.462,0.000,-47.363,0.000,62.988,0.000
1732204957.466,34.180,-48.340,103.516,61.035,0.000
1732204957.470,-105.469,-50.781,106.445,73.730,0.000
1732204957.474,-166.992,-53.711,107.422,41.992,0.000
1732204957.477,-112.305,-46.875,110.352,-7.812,0.000
1732204957.481,-31.250,-45.410,111.328,-16.602,0.000
1732204957.485,-11.230,-50.293,107.910,-1.953,0.000
1732204957.489,-17.578,-53.223,107.422,8.789,0.000
1732204957.493,-17.090,-49.805,114.258,0.488,0.000
1732204957.497,-50.781,-49.805,114.258,-6.836,0.000
1732204957.501,-95.703,-46.387,110.840,-14.648,0.000
1732204957.505,-67.383,-41.016,115.723,-6.836,0.000
1732204957.509,-53.223,-45.898,120.605,12.695,0.000
1732204957.512,-48.828,-52.734,111.328,-1.953,0.000
1732204957.516,-41.992,-49.805,102.051,-8.789,0.000
1732204957.520,-17.578,-47.852,105.957,-6.836,0.000
1732204957.524,44.434,-48.828,114.746,0.488,0.000
1732204957.528,30.762,-55.176,120.117,40.039,0.000
1732204957.532,-63.965,-49.316,117.188,48.828,0.000
1732204957.536,-132.812,-44.922,122.070,38.574,0.000
1732204957.540,-119.141,-49.316,123.047,45.410,0.000
1732204957.544,-76.172,-46.387,120.605,-35.645,0.000
1732204957.547,-63.965,-41.504,120.605,-91.309,0.000
1732204957.551,-71.777,-39.551,115.234,-51.758,0.000
1732204957.555,-54.199,-33.203,117.676,-50.781,0.000
1732204957.559,4.395,-29.297,125.000,-103.516,0.000
1732204957.563,-1.953,-32.715,131.836,-99.121,0.000
1732204957.567,13.184,-28.320,125.488,-56.152,0.000
1732204957.571,-9.277,-28.320,117.188,-34.668,0.000
1732204957.575,-38.574,-32.227,121.582,-12.207,0.000
1732204957.579,-41.992,-37.109,124.512,48.340,0.000
1732204957.583,2.930,-38.086,124.512,60.059,0.000
1732204957.586,-21.484,-27.832,110.352,-2.930,0.000
1732204957.590,-32.227,-23.438,98.633,-40.039,0.000
1732204957.594,-24.414,-23.438,114.746,-71.289,0.000
1732204957.598,-80.566,-19.043,125.488,-81.055,0.000
1732204957.602,-76.172,-13.672,125.977,-32.715,0.000
1732204957.606,-41.016,-10.742,126.465,-35.645,0.000
1732204957.610,-28.320,-11.230,131.836,-10.254,0.000
1732204957.614,-28.809,-10.742,134.277,15.625,0.000
1732204957.618,-29.297,0.000,122.070,5.859,0.000
1732204957.622,-14.160,4.395,126.953,32.715,0.000
1732204957.626,4.883,-12.207,128.418,-11.719,0.000
1732204957.629,11.719,-14.648,130.371,-45.410,0.000
1732204957.633,10.742,0.000,125.977,-12.207,0.000
1732204957.637,14.160,4.883,116.699,-28.320,0.000
1732204957.641,2.930,7.812,125.977,-6.348,0.000
1732204957.645,-17.090,6.348,126.953,-4.395,0.000
1732204957.649,7.812,2.930,116.699,-38.574,0.000
1732204957.653,16.602,0.977,118.652,-37.109,0.000
1732204957.657,-8.301,0.000,120.117,-24.414,0.000
1732204957.661,-16.113,0.000,111.328,-32.715,0.000
1732204957.665,-24.414,-2.930,113.770,-36.621,0.000
1732204957.669,-49.316,-11.719,114.746,-37.109,0.000
1732204957.672,-64.941,-16.113,107.910,-29.785,0.000
1732204957.676,-54.199,-22.461,105.469,-28.809,0.000
1732204957.680,-53.223,-15.137,100.586,-35.645,0.000
1732204957.684,-84.961,-9.766,100.098,-35.156,0.000
1732204957.688,-79.102,-7.812,105.469,-24.902,0.000
1732204957.692,-85.449,-0.977,110.352,-4.883,0.000
1732204957.696,-70.312,-6.836,101.562,-17.578,0.000
1732204957.700,-60.059,-14.648,87.891,-35.645,0.000
1732204957.704,-85.938,-17.578,86.914,-42.969,0.000
1732204957.708,-84.473,-16.113,91.797,-15.625,0.000
1732204957.712,-90.820,-19.043,91.797,-1.953,0.000
1732204957.715,-107.910,-21.973,88.379,-46.387,0.000
1732204957.719,-83.496,-23.926,84.961,-38.086,0.000
1732204957.723,-69.824,-17.578,74.219,-16.602,0.000
1732204957.727,-79.590,-13.184,76.172,-27.344,0.000
1732204957.731,-68.848,-20.020,87.891,-21.973,0.000
1732204957.735,-65.918,-14.160,86.426,-6.836,0.000
1732204957.739,-44.922,-9.277,83.984,-13.672,0.000
1732204957.743,-55.176,-13.672,81.055,-22.949,0.000
1732204957.747,-58.105,-7.812,79.102,-30.762,0.000
1732204957.751,-35.645,-2.930,83.496,-49.316,0.000
1732204957.755,-15.625,-11.719,80.078,-58.105,0.000
1732204957.758,-27.832,-15.625,80.566,-36.133,0.000
1732204957.762,-59.082,-10.742,80.566,-36.621,0.000
1732204957.766,-44.434,-10.742,82.520,-50.781,0.000
1732204957.770,-57.617,-17.578,81.543,-23.926,0.000
1732204957.774,-84.961,-21.484,79.590,-7.324,0.000
1732204957.778,-77.148,-20.508,82.031,-15.625,0.000
1732204957.782,-39.062,-15.137,74.219,-10.742,0.000
1732204957.786,-18.555,-18.555,78.613,19.043,0.000
1732204957.790,-37.109,-22.461,84.473,37.109,0.000
1732204957.794,0.000,-20.508,81.543,17.090,0.000
1732204957.798,0.000,-21.973,79.102,13.672,0.000
1732204957.801,0.000,-19.043,83.008,13.184,0.000
1732204957.805,0.000,-20.020,87.891,18.066,0.000
1732204957.809,0.000,-25.879,84.961,21.973,0.000
1732204957.813,0.000,-25.391,80.566,0.000,0.000
1732204957.817,0.000,-16.602,75.684,-0.488,0.000
1732204957.821,0.000,-20.508,67.383,-13.672,0.000
1732204957.825,0.000,-17.578,66.895,-26.855,0.000
1732204957.829,0.000,-22.949,70.312,-14.648,0.000
1732204957.833,0.000,-37.598,75.684,0.977,0.000
1732204957.837,0.000,-34.180,77.148,2.930,0.000
1732204957.841,-45.898,-25.391,66.406,-41.504,0.000
1732204957.844,-49.805,-24.902,65.918,-43.945,0.000
1732204957.848,-28.809,-27.344,74.707,-13.672,0.000
1732204957.852,-33.691,-25.879,71.777,-21.973,0.000
1732204957.856,-50.293,-23.438,71.289,-14.648,0.000
1732204957.860,-69.336,-26.855,73.242,-6.348,0.000
1732204957.864,-55.664,-21.973,72.266,-27.344,0.000
1732204957.868,-40.039,-13.672,62.500,-59.082,0.000
1732204957.872,-44.434,-15.625,54.199,-73.242,0.000
1732204957.876,-30.762,-9.766,55.664,-50.781,0.000
1732204957.880,-39.062,-6.348,51.758,-47.852,0.000
1732204957.883,-68.848,-5.371,59.082,-66.406,0.000
1732204957.887,0.000,4.395,73.242,-31.250,0.000
1732204957.891,0.000,6.348,65.430,-32.715,0.000
1732204957.895,0.000,10.742,52.246,-58.105,0.000
1732204957.899,0.000,22.949,39.062,-72.266,0.000
1732204957.903,0.000,31.738,39.062,-114.746,0.000
1732204957.907,0.000,32.227,60.547,-131.836,0.000
1732204957.911,0.000,27.344,70.312,-108.398,0.000
1732204957.915,0.000,25.879,60.547,-139.160,0.000
1732204957.919,0.000,34.668,58.105,-195.801,0.000
1732204957.923,0.000,42.969,65.430,-196.289,0.000
1732204957.926,0.000,43.457,83.496,-212.891,0.000
1732204957.930,0.000,55.176,108.398,-244.141,0.000
1732204957.934,-275.391,59.570,115.234,-263.184,0.000
1732204957.938,-350.098,48.828,129.883,-293.457,0.000
1732204957.942,-356.445,47.363,143.555,-313.965,0.000
1732204957.946,-353.516,53.711,148.926,-309.082,0.000
1732204957.950,-371.582,40.527,156.738,-321.289,0.000
1732204957.954,-362.793,30.273,159.180,-334.961,0.000
1732204957.958,-355.957,17.090,154.297,-330.078,0.000
1732204957.962,-358.887,13.672,145.508,-310.547,0.000
1732204957.965,-330.566,17.090,145.020,-319.336,0.000
1732204957.969,-322.266,13.184,143.066,-317.383,0.000
1732204957.973,-306.641,7.324,134.766,-300.293,0.000
1732204957.977,-304.688,-5.859,131.348,-311.035,0.000
1732204957.981,-277.344,-8.789,138.672,-274.414,0.000
1732204957.985,-267.090,-3.906,128.418,-250.000,0.000
1732204957.989,-280.273,-22.949,123.535,-246.094,0.000
1732204957.993,-267.578,-35.645,123.535,-235.840,0.000
1732204957.997,-243.652,-29.785,119.629,-229.004,0.000
1732204958.001,-237.305,-39.062,114.258,-224.609,0.000
1732204958.005,-220.215,-50.293,102.051,-213.867,0.000
1732204958.008,-173.340,-42.480,99.609,-181.152,0.000
1732204958.012,-160.645,-38.574,107.910,-166.992,0.000
1732204958.016,-177.734,-49.805,101.562,-176.270,0.000
1732204958.020,-184.570,-57.129,90.820,-174.805,0.000
1732204958.024,-199.219,-57.129,96.680,-137.695,0.000
1732204958.028,0.000,-64.453,105.469,-102.539,0.000
1732204958.032,0.000,-73.242,108.398,-94.727,0.000
1732204958.036,0.000,-72.754,97.656,-97.656,0.000
1732204958.040,0.000,-66.895,81.543,-85.938,0.000
1732204958.044,0.000,-71.777,76.172,-48.340,0.000
1732204958.047,0.000,-73.242,72.754,-67.871,0.000
1732204958.051,0.000,-69.824,67.871,-75.684,0.000
1732204958.055,0.000,-69.336,67.383,-48.828,0.000
1732204958.059,0.000,-67.871,63.965,-68.359,0.000
1732204958.063,0.000,-70.801,55.664,-45.410,0.000
1732204958.067,0.000,-62.500,55.664,-8.789,0.000
1732204958.071,0.000,-63.965,67.871,-3.418,0.000
1732204958.075,-212.402,-67.871,65.430,5.371,0.000
1732204958.079,-204.102,-65.918,48.340,-16.602,0.000
1732204958.082,-206.543,-64.941,42.969,-53.711,0.000
1732204958.086,-189.453,-63.965,45.898,-45.410,0.000
1732204958.090,-161.133,-66.895,42.969,-19.043,0.000
1732204958.094,-149.902,-64.941,34.668,-11.719,0.000
1732204958.098,-151.855,-65.918,35.156,-2.441,0.000
1732204958.102,-150.879,-70.801,44.922,17.578,0.000
1732204958.106,-150.391,-70.312,47.363,15.137,0.000
1732204958.110,-115.723,-70.312,36.133,-14.160,0.000
1732204958.114,-72.266,-72.754,22.461,-16.113,0.000
1732204958.117,-81.055,-73.242,21.484,29.785,0.000
1732204958.122,-24.414,-64.453,20.508,62.012,0.000
1732204958.125,-34.180,-56.641,7.324,53.223,0.000
1732204958.129,-33.691,-54.688,-6.348,39.551,0.000
1732204958.133,-46.875,-51.270,-11.230,40.039,0.000
1732204958.137,-41.016,-52.246,-14.160,45.410,0.000
1732204958.141,7.812,-42.480,-16.602,37.109,0.000
1732204958.145,0.488,-44.434,-24.902,24.414,0.000
1732204958.149,-5.859,-44.922,-38.574,30.273,0.000
1732204958.153,5.371,-33.203,-47.363,41.504,0.000
1732204958.157,-13.672,-37.598,-46.387,29.297,0.000
1732204958.160,-17.578,-40.527,-53.711,14.160,0.000
1732204958.164,2.930,-50.781,-62.988,39.551,0.000
1732204958.169,37.109,-66.406,-63.965,84.473,0.000
1732204958.172,31.738,-56.152,-74.707,79.590,0.000
1732204958.176,34.180,-37.598,-85.449,100.098,0.000
1732204958.180,62.012,-36.133,-98.633,111.816,0.000
1732204958.184,52.734,-40.039,-122.070,68.848,0.000
1732204958.188,39.551,-46.875,-139.160,51.758,0.000
1732204958.192,58.105,-39.062,-146.973,76.172,0.000
1732204958.196,83.984,-30.273,-152.832,80.566,0.000
1732204958.200,85.938,-29.297,-166.504,77.637,0.000
1732204958.204,107.910,-24.902,-174.805,113.770,0.000
1732204958.207,135.742,-29.297,-168.457,135.742,0.000
1732204958.211,127.930,-27.344,-165.527,145.996,0.000
1732204958.215,110.840,-29.297,-163.574,145.020,0.000
1732204958.219,96.191,-34.668,-157.227,159.180,0.000
1732204958.223,100.586,-32.715,-164.062,183.594,0.000
1732204958.227,110.840,-35.645,-158.203,190.430,0.000
1732204958.231,137.695,-38.086,-147.949,166.992,0.000
1732204958.235,180.664,-33.691,-148.926,163.086,0.000
1732204958.239,159.180,-30.762,-154.785,162.598,0.000
1732204958.243,125.977,-40.039,-158.691,138.184,0.000
1732204958.247,146.973,-46.387,-152.832,154.785,0.000
1732204958.250,144.531,-38.086,-156.738,174.316,0.000
1732204958.254,142.578,-34.668,-146.973,173.828,0.000
1732204958.258,131.348,-41.504,-124.023,177.734,0.000
1732204958.262,0.000,-47.852,-123.535,182.617,0.000
1732204958.266,0.000,-44.434,-130.371,174.316,0.000
1732204958.270,0.000,-43.945,-128.906,177.734,0.000
1732204958.274,0.000,-41.504,-121.582,187.500,0.000
1732204958.278,0.000,-38.086,-112.793,188.965,0.000
1732204958.282,0.000,-34.180,-110.840,196.289,0.000
1732204958.286,0.000,-29.297,-108.398,197.754,0.000
1732204958.290,0.000,-40.527,-100.098,170.898,0.000
1732204958.293,0.000,-41.504,-98.145,158.691,0.000
1732204958.297,0.000,-30.273,-94.727,170.410,0.000
1732204958.301,0.000,-27.832,-87.402,154.297,0.000
1732204958.305,0.000,-26.855,-79.590,172.852,0.000
1732204958.309,88.379,-26.855,-78.125,177.734,0.000
1732204958.313,52.246,-28.809,-84.473,144.531,0.000
1732204958.317,45.410,-32.715,-77.148,151.367,0.000
1732204958.321,44.922,-35.156,-76.660,155.273,0.000
1732204958.325,23.926,-28.809,-74.707,125.488,0.000
1732204958.329,0.488,-29.297,-73.242,110.352,0.000
1732204958.333,-9.277,-26.855,-74.219,130.371,0.000
1732204958.337,13.672,-24.414,-66.406,126.953,0.000
1732204958.340,41.504,-30.273,-61.035,131.348,0.000
1732204958.344,19.531,-26.367,-68.359,102.051,0.000
1732204958.348,18.066,-28.809,-68.848,49.316,0.000
1732204958.352,29.297,-25.879,-63.477,55.176,0.000
1732204958.356,0.000,-16.602,-61.523,65.918,0.000
1732204958.360,0.000,-20.996,-62.500,49.316,0.000
1732204958.364,0.000,-23.926,-63.477,50.781,0.000
1732204958.368,0.000,-20.996,-61.035,49.316,0.000
1732204958.372,0.000,-25.879,-57.617,45.410,0.000
1732204958.376,0.000,-29.785,-55.664,35.645,0.000
1732204958.380,0.000,-30.762,-55.176,36.133,0.000
1732204958.383,0.000,-29.785,-59.570,31.738,0.000
1732204958.387,0.000,-28.809,-57.129,41.504,0.000
1732204958.391,0.000,-21.484,-45.898,71.289,0.000
1732204958.395,0.000,-20.508,-46.387,64.941,0.000
1732204958.399,0.000,-22.461,-45.410,56.641,0.000
1732204958.403,46.387,-21.484,-41.992,49.316,0.000
1732204958.407,50.781,-24.902,-42.480,47.363,0.000
1732204958.410,14.648,-19.531,-37.598,22.461,0.000
1732204958.414,11.719,-14.648,-36.621,-27.344,0.000
1732204958.418,18.066,-21.484,-34.180,-56.152,0.000
1732204958.422,14.648,-28.320,-31.738,-63.965,0.000
1732204958.426,12.207,-27.344,-36.621,-46.875,0.000
1732204958.430,-7.324,-20.508,-41.504,-40.527,0.000
1732204958.434,-15.137,-17.578,-42.480,-49.316,0.000
1732204958.438,-10.742,-25.391,-39.062,-35.156,0.000
1732204958.442,-15.137,-32.227,-35.156,-21.973,0.000
1732204958.446,-22.949,-33.203,-42.969,-47.852,0.000
1732204958.450,-20.508,-30.273,-47.363,-51.270,0.000
1732204958.453,-25.391,-32.715,-39.551,-38.086,0.000
1732204958.457,-23.926,-41.504,-45.898,-51.758,0.000
1732204958.461,-13.672,-34.180,-49.316,-41.016,0.000
1732204958.465,20.508,-21.973,-37.598,-35.645,0.000
1732204958.469,28.809,-24.414,-34.668,-28.320,0.000
1732204958.473,10.254,-34.180,-36.621,-28.320,0.000
1732204958.477,-5.859,-34.180,-35.645,-47.852,0.000
1732204958.481,1.953,-29.297,-29.297,-40.527,0.000
1732204958.485,19.043,-31.738,-30.273,-55.176,0.000
1732204958.488,16.602,-24.902,-40.527,-79.102,0.000
1732204958.492,41.016,-17.090,-36.133,-68.359,0.000
1732204958.496,51.758,-17.578,-35.156,-82.520,0.000
1732204958.500,42.969,-14.648,-29.297,-59.570,0.000
1732204958.504,2.441,-18.555,-28.320,-49.316,0.000
1732204958.508,-21.484,-27.832,-31.250,-64.941,0.000
1732204958.512,-8.789,-24.414,-29.785,-41.504,0.000
1732204958.516,-7.812,-28.809,-29.785,-37.109,0.000
1732204958.520,28.320,-28.809,-30.762,-51.270,0.000
1732204958.524,38.574,-17.090,-37.109,-62.012,0.000
1732204958.528,12.695,-16.113,-37.598,-55.664,0.000
1732204958.531,7.812,-16.602,-38.086,-44.434,0.000
1732204958.535,-13.184,-18.066,-32.227,-28.809,0.000
1732204958.539,-21.973,-25.391,-21.973,-22.461,0.000
1732204958.543,-0.488,-17.090,0.000,-7.812,0.000
1732204958.547,35.645,-3.906,0.000,-11.230,0.000
1732204958.551,48.828,-11.719,0.000,-29.297,0.000
1732204958.555,5.371,-15.625,0.000,-43.945,0.000
1732204958.559,-32.227,-16.602,0.000,-49.316,0.000
1732204958.563,-7.812,-19.531,0.000,-6.836,0.000
1732204958.567,-2.441,-13.672,0.000,19.531,0.000
1732204958.571,-9.766,-15.137,0.000,-14.648,0.000
1732204958.574,6.348,-22.461,0.000,18.066,0.000
1732204958.578,8.301,-17.578,0.000,-2.930,0.000
1732204958.582,4.883,-14.160,0.000,-62.500,0.000
1732204958.586,-6.836,-20.020,0.000,-78.613,0.000
1732204958.590,-3.906,-27.832,-46.875,-81.055,0.000
1732204958.594,12.695,-28.320,-46.875,-45.898,0.000
1732204958.598,14.160,-22.461,-40.039,-42.969,0.000
1732204958.602,-6.836,-20.996,-40.527,-52.246,0.000
1732204958.606,-12.207,-22.461,-36.621,-52.734,0.000
1732204958.610,-2.441,-24.414,-30.762,-67.871,0.000
1732204958.614,-1.465,-20.508,-35.156,-49.805,0.000
1732204958.617,5.371,-19.043,-40.039,-34.668,0.000
1732204958.621,32.227,-23.438,-33.691,-21.973,0.000
1732204958.625,46.387,-22.949,-31.738,0.488,0.000
1732204958.629,50.781,-24.414,-28.809,12.695,0.000
1732204958.633,55.664,-24.414,-31.738,21.973,0.000
1732204958.637,60.059,-19.043,-35.156,27.344,0.000
1732204958.641,68.359,-20.996,-31.738,26.367,0.000
1732204958.645,68.359,-20.996,-29.785,4.883,0.000
1732204958.649,60.059,-17.090,-31.738,-26.855,0.000
1732204958.653,62.012,-18.555,-34.180,-59.570,0.000
1732204958.657,53.711,-19.043,-34.180,-37.109,0.000
1732204958.660,51.758,-19.043,-35.645,9.277,0.000
1732204958.664,63.477,-17.090,-37.109,9.277,0.000
1732204958.668,51.758,-15.137,-31.738,-0.488,0.000
1732204958.672,51.758,-13.184,-32.715,-13.184,0.000
1732204958.676,45.898,-9.277,-37.109,-17.578,0.000
1732204958.680,24.414,-13.184,-29.297,-19.531,0.000
1732204958.684,7.324,-19.531,-20.020,-26.855,0.000
1732204958.688,-0.977,-19.531,-28.320,-21.973,0.000
1732204958.692,22.949,-20.508,-34.668,-7.324,0.000
1732204958.696,23.926,-21.973,-27.344,-3.418,0.000
1732204958.700,14.648,-23.926,-25.879,-3.906,0.000
1732204958.703,35.156,-24.902,-29.785,-21.484,0.000
1732204958.707,53.711,-24.902,-33.691,-25.391,0.000
1732204958.711,62.500,-24.414,-32.227,-7.812,0.000
1732204958.715,64.941,-20.996,-27.832,-16.602,0.000
1732204958.719,63.477,-20.020,-27.344,-17.578,0.000
1732204958.723,51.270,-21.973,-24.902,-5.371,0.000
1732204958.727,36.621,-22.461,-22.461,-14.648,0.000
1732204958.731,30.762,-21.973,-20.020,-22.949,0.000
1732204958.735,33.691,-18.555,-22.461,-43.457,0.000
1732204958.739,55.664,-10.742,-22.461,-37.598,0.000
1732204958.743,52.734,-8.789,-24.902,-24.414,0.000
1732204958.746,34.668,-9.277,-25.879,-39.062,0.000
1732204958.750,42.969,-6.836,-20.996,-36.133,0.000
1732204958.754,45.898,-11.230,-23.438,-32.227,0.000
1732204958.758,48.828,-16.113,-31.250,-29.785,0.000
1732204958.762,42.480,-16.602,-36.621,-31.738,0.000
1732204958.766,45.410,-19.043,-34.180,-33.203,0.000
1732204958.770,46.387,-18.555,-33.691,-10.742,0.000
1732204958.774,38.574,-16.602,-38.086,-17.090,0.000
1732204958.778,40.527,-11.719,-37.598,-13.672,0.000
1732204958.782,38.574,-4.395,-37.109,-22.461,0.000
1732204958.785,32.715,-3.906,-45.898,-46.875,0.000
1732204958.789,47.852,-3.906,-51.758,-35.645,0.000
1732204958.793,40.039,-7.812,-49.316,-38.086,0.000
1732204958.797,20.508,-9.766,-52.734,-34.180,0.000
1732204958.801,32.715,-4.395,-58.594,-35.156,0.000
1732204958.805,43.457,-8.789,-57.617,-72.266,0.000
1732204958.809,44.434,-6.348,-70.312,-71.289,0.000
1732204958.813,44.434,-3.418,-80.566,-63.965,0.000
1732204958.817,26.367,-7.324,-83.984,-75.195,0.000
1732204958.821,22.461,-7.324,-87.891,-41.016,0.000
1732204958.825,31.738,-7.324,-85.938,-17.090,0.000
1732204958.828,27.344,-10.254,-84.961,-26.855,0.000
1732204958.832,24.414,-6.836,-91.797,-27.832,0.000
1732204958.836,21.973,-5.371,-90.820,-19.531,0.000
1732204958.840,12.695,-15.137,-77.148,-35.645,0.000
1732204958.844,21.973,-15.137,-86.426,-35.156,0.000
1732204958.848,38.574,-9.766,-92.773,-22.461,0.000
1732204958.852,41.504,-20.996,-80.078,-36.133,0.000
1732204958.856,47.852,-22.461,-76.172,-39.551,0.000
1732204958.860,22.461,-25.879,-79.590,-28.809,0.000
1732204958.864,20.020,-28.809,-82.031,-32.227,0.000
1732204958.867,41.016,-21.973,-86.914,-20.020,0.000
1732204958.872,23.438,-24.902,-90.820,0.000,0.000
1732204958.875,31.738,-24.414,-87.402,16.113,0.000
1732204958.879,45.410,-25.391,-84.961,34.180,0.000
1732204958.883,35.645,-29.785,-93.750,39.062,0.000
1732204958.887,26.367,-30.762,-85.938,44.434,0.000
1732204958.891,41.504,-29.297,-72.754,68.359,0.000
1732204958.895,40.039,-30.273,-75.684,67.871,0.000
1732204958.899,32.227,-29.297,-82.031,1.465,0.000
1732204958.903,39.551,-26.367,-82.520,-57.617,0.000
1732204958.907,32.227,-20.996,-84.473,-37.109,0.000
1732204958.910,26.367,-16.602,-83.496,-3.906,0.000
1732204958.914,19.043,-21.484,-76.172,4.395,0.000
1732204958.918,0.000,-22.949,-71.289,-5.371,0.000
1732204958.922,0.000,-18.555,-73.730,-4.883,0.000
1732204958.926,0.000,-18.066,-72.754,6.836,0.000
1732204958.930,0.000,-25.879,-70.801,11.719,0.000
1732204958.934,0.000,-22.949,-71.289,-1.953,0.000
1732204958.938,0.000,-20.020,-66.895,1.465,0.000
1732204958.942,0.000,-26.367,-68.848,33.691,0.000
1732204958.946,0.000,-21.484,-62.500,37.598,0.000
1732204958.950,0.000,-22.461,-59.082,-6.348,0.000
1732204958.953,0.000,-18.555,-66.895,-41.016,0.000
1732204958.957,0.000,-10.742,-65.918,-19.531,0.000
1732204958.961,0.000,-6.348,-66.406,-18.066,0.000
1732204958.966,-2.441,-16.602,-57.129,9.766,0.000
1732204958.969,-2.930,-28.320,-50.293,18.555,0.000
1732204958.973,-9.766,-23.438,-53.223,-9.766,0.000
1732204958.977,-13.672,-19.043,-44.434,9.277,0.000
1732204958.981,-16.602,-23.438,-38.086,-7.324,0.000
1732204958.985,-14.160,-30.762,-38.574,0.488,0.000
1732204958.989,-10.742,-25.391,-44.434,45.898,0.000
1732204958.993,-1.465,-24.902,-47.852,9.277,0.000
1732204958.997,0.977,-22.461,-43.945,-25.879,0.000
1732204959.001,1.953,-17.578,-44.922,-23.438,0.000
1732204959.004,2.441,-19.043,-44.922,-11.230,0.000
1732204959.008,-8.789,-20.996,-41.504,-14.648,0.000
1732204959.012,0.000,-19.531,-41.016,-41.992,0.000
1732204959.016,2.441,-23.926,-46.875,-38.574,0.000
1732204959.020,-0.488,-20.996,-51.758,-31.250,0.000
1732204959.024,3.906,-14.160,-56.641,-20.508,0.000
1732204959.028,1.465,-17.090,-53.223,0.977,0.000
1732204959.032,-17.578,-24.414,-46.875,-7.812,0.000
1732204959.036,3.906,-22.949,-45.898,3.906,0.000
1732204959.040,5.371,-13.672,-45.410,25.879,0.000
1732204959.044,-20.996,-14.160,-41.992,3.418,0.000
1732204959.047,-8.789,-16.602,-37.109,-3.906,0.000
1732204959.051,-20.020,-15.625,-34.180,14.648,0.000
1732204959.055,-14.160,-20.020,-32.715,-1.465,0.000
1732204959.059,0.000,-21.973,-39.062,18.066,0.000
1732204959.063,0.000,-19.043,-42.969,3.906,0.000
1732204959.067,0.000,-19.531,-44.434,-20.508,0.000
1732204959.071,0.000,-19.531,-44.434,20.020,0.000
1732204959.075,0.000,-15.137,-43.945,3.418,0.000
1732204959.079,0.000,-18.555,-49.805,-49.316,0.000
1732204959.083,0.000,-22.949,-49.805,-63.477,0.000
1732204959.087,0.000,-27.344,-46.875,-39.062,0.000
1732204959.090,0.000,-28.320,-51.270,-19.043,0.000
1732204959.094,0.000,-25.391,-47.852,-10.254,0.000
1732204959.098,0.000,-24.902,-41.504,-31.738,0.000
1732204959.102,0.000,-23.926,-40.039,-68.848,0.000
1732204959.106,-0.488,-20.020,-40.527,-56.152,0.000
1732204959.110,-16.602,-16.113,-43.945,-23.926,0.000
1732204959.114,-30.273,-19.043,-38.086,0.977,0.000
1732204959.117,-21.973,-16.602,-35.645,-1.953,0.000
1732204959.121,-22.949,-17.578,-45.410,3.418,0.000
1732204959.125,-23.438,-24.902,-39.062,0.977,0.000
1732204959.129,-29.297,-22.461,-43.457,-39.551,0.000
1732204959.133,-45.898,-18.555,-48.828,-28.320,0.000
1732204959.137,-28.320,-26.855,-47.852,-9.766,0.000
1732204959.141,-15.625,-25.879,-45.898,-12.695,0.000
1732204959.145,-24.902,-13.672,-44.434,14.648,0.000
1732204959.149,-25.391,-12.695,-47.852,15.625,0.000
1732204959.152,-34.668,-19.043,-50.293,-6.348,0.000
1732204959.156,-42.480,-17.578,-50.781,-23.926,0.000
1732204959.160,-29.785,-14.648,-50.293,-34.180,0.000
1732204959.164,-14.648,-14.648,-55.176,-30.762,0.000
1732204959.168,-17.578,-20.996,-53.223,-25.391,0.000
1732204959.172,-21.973,-23.926,-49.316,-40.039,0.000
1732204959.176,-20.020,-20.996,-53.223,-38.574,0.000
1732204959.180,-24.414,-26.855,-52.246,-28.809,0.000
1732204959.184,-15.137,-27.344,-47.852,-45.898,0.000
1732204959.187,-19.043,-23.438,-40.527,-54.688,0.000
1732204959.191,-35.645,-20.508,-38.086,-29.785,0.000
1732204959.195,-31.250,-19.043,-41.992,-14.648,0.000
1732204959.199,-32.227,-26.367,-45.410,-17.090,0.000
1732204959.203,-37.109,-22.461,-47.363,-42.969,0.000
1732204959.207,-29.785,-17.578,-41.992,-37.109,0.000
1732204959.211,-22.949,-24.902,-41.016,-26.367,0.000
1732204959.215,-36.621,-20.508,-43.945,-56.641,0.000
1732204959.218,-34.180,-18.066,-47.852,-40.527,0.000
1732204959.222,-32.715,-21.973,-49.805,-29.297,0.000
1732204959.226,-47.363,-13.184,-50.781,-39.062,0.000
1732204959.230,-41.992,-6.348,-55.176,-45.898,0.000
1732204959.234,-44.922,-17.578,-59.082,-39.551,0.000
1732204959.238,-47.363,-22.461,-65.430,-37.598,0.000
1732204959.242,-47.363,-20.996,-75.684,-32.715,0.000
1732204959.246,-44.922,-19.531,-78.125,-30.762,0.000
1732204959.250,-18.555,-13.672,-79.590,-28.809,0.000
1732204959.254,-39.551,-18.066,-86.914,-32.715,0.000
1732204959.258,-60.059,-18.066,-95.703,-22.949,0.000
1732204959.262,-56.641,-16.602,-96.191,-39.062,0.000
1732204959.265,-60.059,-24.902,-92.285,-66.895,0.000
1732204959.269,-67.871,-20.508,-92.773,-58.594,0.000
1732204959.273,-79.590,-20.508,-95.215,-61.035,0.000
1732204959.277,-78.613,-30.273,-102.539,-62.012,0.000
1732204959.281,-55.664,-26.367,-107.910,-64.453,0.000
1732204959.285,-52.734,-24.414,-103.516,-61.523,0.000
1732204959.289,-45.410,-23.926,-98.633,-61.035,0.000
1732204959.293,0.000,-14.648,-96.191,-63.477,0.000
1732204959.297,0.000,-15.625,-99.121,-63.965,0.000
1732204959.301,0.000,-24.902,-102.539,-52.734,0.000
1732204959.305,0.000,-24.414,-100.098,-44.922,0.000
1732204959.309,0.000,-15.625,-101.074,-45.410,0.000
1732204959.312,0.000,-19.531,-101.562,-32.715,0.000
1732204959.316,0.000,-22.949,-99.121,-50.781,0.000
1732204959.320,0.000,-21.484,-105.469,-53.223,0.000
1732204959.324,0.000,-23.438,-115.723,-26.367,0.000
1732204959.328,0.000,-26.367,-118.164,-31.250,0.000
1732204959.332,0.000,-27.832,-125.488,-36.133,0.000
1732204959.336,0.000,-23.926,-131.836,-51.758,0.000
1732204959.340,-35.156,-20.508,0.000,-53.711,0.000
1732204959.344,-34.180,-14.648,0.000,-42.480,0.000
1732204959.348,-32.715,-19.531,0.000,-39.062,0.000
1732204959.352,-41.992,-25.391,0.000,-39.551,0.000
1732204959.355,-37.109,-12.695,0.000,-63.477,0.000
1732204959.359,-30.273,-6.348,0.000,-47.363,0.000
1732204959.363,-42.480,-10.254,0.000,-37.598,0.000
1732204959.367,-36.621,-15.625,0.000,-36.621,0.000
1732204959.371,-22.461,-11.230,0.000,-32.715,0.000
1732204959.375,-30.762,-7.812,0.000,-50.293,0.000
1732204959.379,-26.855,-16.113,0.000,-53.223,0.000
1732204959.383,-19.531,-17.090,0.000,-22.461,0.000
1732204959.387,-20.996,-19.531,-132.324,-27.832,0.000
1732204959.391,-6.836,-16.602,-130.859,-31.738,0.000
1732204959.394,-3.906,-16.113,-125.000,-19.043,0.000
1732204959.398,-25.879,-20.508,-127.930,-28.320,0.000
1732204959.402,-31.250,-13.184,-126.953,-32.715,0.000
1732204959.406,-24.902,-4.395,-128.418,-21.973,0.000
1732204959.410,-20.996,-2.441,-133.301,-15.625,0.000
1732204959.414,-27.832,-9.766,-117.676,-28.320,0.000
1732204959.418,-36.133,-12.207,-117.676,-39.062,0.000
1732204959.422,-18.066,-6.836,-113.770,-8.789,0.000
1732204959.426,-9.766,-4.883,-101.074,0.000,0.000
1732204959.430,-29.785,-8.789,-104.004,-40.527,0.000
1732204959.434,0.000,-15.137,-99.121,-45.410,0.000
1732204959.438,0.000,-13.184,-92.285,-46.387,0.000
1732204959.441,0.000,-6.836,-93.750,-48.828,0.000
1732204959.445,0.000,-2.930,-91.797,-25.391,0.000
1732204959.449,0.000,-6.836,-92.285,-26.367,0.000
1732204959.453,0.000,-13.672,-95.703,-32.715,0.000
1732204959.457,0.000,-16.602,-86.914,-41.504,0.000
1732204959.461,0.000,-10.742,-89.844,-36.133,0.000
1732204959.465,0.000,-1.465,-85.938,-31.250,0.000
1732204959.469,0.000,0.000,-78.125,-37.598,0.000
1732204959.473,0.000,-4.395,-78.125,-44.434,0.000
1732204959.477,0.000,-7.812,-81.055,-43.945,0.000
1732204959.481,-32.715,-14.160,-78.613,-36.133,0.000
1732204959.484,-27.832,-12.695,-78.125,-11.230,0.000
1732204959.488,-18.555,-11.719,-78.613,-7.324,0.000
1732204959.492,-26.367,-17.578,-76.172,-25.391,0.000
1732204959.496,-36.621,-20.508,-82.031,-48.828,0.000
1732204959.500,-32.715,-18.066,-86.426,-63.477,0.000
1732204959.504,-31.738,-12.695,-83.008,-46.875,0.000
1732204959.508,-33.691,-10.742,-82.520,-29.297,0.000
1732204959.512,-28.320,-8.789,-83.984,-29.297,0.000
1732204959.516,-19.043,-11.230,-85.449,-36.133,0.000
1732204959.519,-14.648,-17.578,-83.984,-51.270,0.000
1732204959.523,-19.043,-15.137,-88.867,-63.477,0.000
1732204959.527,-3.906,-16.602,-106.934,-53.223,0.000
1732204959.531,20.996,-16.113,-113.281,-34.180,0.000
1732204959.535,11.230,-11.230,-100.098,-28.320,0.000
1732204959.539,-10.742,-20.996,-88.867,-37.109,0.000
1732204959.543,-16.602,-24.902,-83.008,-48.828,0.000
1732204959.547,-12.207,-21.484,-83.984,-36.133,0.000
1732204959.551,-17.090,-27.832,-92.285,-4.395,0.000
1732204959.555,-35.156,-28.320,-99.121,-19.531,0.000
1732204959.559,-33.691,-28.320,-100.098,-43.457,0.000
1732204959.563,-18.066,-33.203,-88.867,-27.344,0.000
1732204959.566,-16.113,-35.645,-83.496,-31.738,0.000
1732204959.570,-32.715,-32.227,-89.355,-42.969,0.000
1732204959.574,0.000,-30.762,-95.215,-49.805,0.000
1732204959.578,0.000,-24.414,-109.375,-55.176,0.000
1732204959.582,0.000,-20.508,-106.445,-29.785,0.000
1732204959.586,0.000,-27.344,-100.098,-28.809,0.000
1732204959.590,0.000,-23.926,-107.910,-50.781,0.000
1732204959.594,0.000,-29.297,-107.422,-38.574,0.000
1732204959.598,0.000,-36.621,-101.562,-8.789,0.000
1732204959.602,0.000,-28.320,-100.586,-20.508,0.000
1732204959.606,0.000,-22.949,-104.980,-26.367,0.000
1732204959.609,0.000,-20.996,-102.051,-11.230,0.000
1732204959.613,0.000,-22.461,-105.469,-9.277,0.000
1732204959.617,0.000,-25.391,-112.305,7.812,0.000
1732204959.621,-33.203,-20.996,-110.352,6.348,0.000
1732204959.625,-16.113,-13.184,-110.352,-34.180,0.000
1732204959.629,-21.973,-12.695,-112.305,-45.410,0.000
1732204959.633,-30.273,-8.789,-116.699,-41.992,0.000
1732204959.637,-33.691,-8.789,-116.211,-60.547,0.000
1732204959.641,-31.250,-11.719,-113.770,-50.293,0.000
1732204959.644,-22.461,-8.301,-119.141,-29.297,0.000
1732204959.648,-22.949,-9.277,-120.117,-17.578,0.000
1732204959.652,-27.344,-18.066,-117.188,-5.859,0.000
1732204959.656,-11.230,-16.602,-115.723,-14.648,0.000
1732204959.660,-14.648,-11.719,-116.699,-24.414,0.000
1732204959.664,-23.926,-17.578,-116.699,-12.207,0.000
1732204959.668,-15.137,-17.578,-109.375,-8.301,0.000
1732204959.672,-12.695,-11.230,-106.934,-12.207,0.000
1732204959.676,-12.695,-9.277,-114.258,-6.348,0.000
1732204959.680,-13.184,-10.742,-122.559,-28.320,0.000
1732204959.684,-23.926,-9.277,-119.141,-22.461,0.000
1732204959.687,-22.461,-8.301,-106.445,16.602,0.000
1732204959.691,-11.230,-16.602,-116.211,-12.695,0.000
1732204959.695,-14.160,-23.438,-125.977,-40.527,0.000
1732204959.699,-18.555,-20.996,-109.863,-19.043,0.000
1732204959.703,-11.719,-11.230,-112.305,-20.996,0.000
1732204959.707,-7.324,-7.812,-125.488,-21.484,0.000
1732204959.711,-4.395,-13.672,-121.094,0.977,0.000
1732204959.715,0.000,-16.602,-114.258,20.020,0.000
1732204959.719,0.000,-15.137,-114.746,9.766,0.000
1732204959.723,0.000,-13.184,-113.281,-8.789,0.000
1732204959.727,0.000,-11.719,-113.281,-14.648,0.000
1732204959.730,0.000,-14.160,-121.094,-34.180,0.000
1732204959.734,0.000,-16.602,-116.211,-31.250,0.000
1732204959.738,0.000,-20.996,-113.281,-12.695,0.000
1732204959.742,0.000,-21.484,-118.652,0.488,0.000
1732204959.746,0.000,-12.207,-124.023,-2.930,0.000
1732204959.750,0.000,-14.648,-130.371,-24.902,0.000
1732204959.754,0.000,-24.414,-137.207,-42.480,0.000
1732204959.758,0.000,-19.043,-133.789,-38.086,0.000
1732204959.762,-15.137,-11.719,-127.930,-27.344,0.000
1732204959.766,1.953,-10.742,-132.812,-28.809,0.000
1732204959.770,7.324,-10.254,-125.488,-10.742,0.000
1732204959.774,4.395,-6.348,-112.793,8.301,0.000
1732204959.777,-5.859,-15.625,-116.211,-2.930,0.000
1732204959.781,-18.555,-27.832,-124.023,-4.395,0.000
1732204959.785,-26.855,-24.902,-126.465,-36.133,0.000
1732204959.789,-18.555,-20.508,-127.441,-39.062,0.000
1732204959.793,-10.742,-28.320,-127.441,-22.461,0.000
1732204959.797,-11.230,-30.273,-121.582,-42.969,0.000
1732204959.801,-0.488,-16.602,-118.652,-34.180,0.000
1732204959.805,-2.930,-16.113,-121.582,1.953,0.000
1732204959.809,-18.066,-19.531,-122.070,-16.113,0.000
1732204959.813,-21.484,-18.066,-125.977,-32.715,0.000
1732204959.817,-34.180,-15.625,-126.465,-15.137,0.000
1732204959.820,-47.363,-18.066,-120.117,-19.531,0.000
1732204959.824,-35.156,-22.949,-118.164,-19.043,0.000
1732204959.828,-14.648,-23.926,-120.117,-22.461,0.000
1732204959.832,-2.930,-22.949,-128.418,-38.086,0.000
1732204959.836,-22.461,-21.484,-127.930,-41.992,0.000
1732204959.840,-22.461,-7.812,-128.418,-30.273,0.000
1732204959.844,-19.043,-11.230,-126.953,-42.969,0.000
1732204959.848,-27.832,-16.602,-124.023,-40.527,0.000
1732204959.852,-11.719,-9.766,-122.070,-33.203,0.000
1732204959.856,-13.184,-17.090,-129.883,-46.875,0.000
1732204959.860,-25.391,-20.996,-132.324,-31.250,0.000
1732204959.863,-14.648,-23.438,-130.859,-25.391,0.000
1732204959.867,-11.230,-18.066,-133.301,-24.414,0.000
1732204959.871,-12.695,-4.395,-127.930,-29.785,0.000
1732204959.875,-10.254,-14.648,-137.695,-37.598,0.000
1732204959.879,-11.230,-25.879,-135.742,-15.625,0.000
1732204959.883,-8.789,-18.066,-130.859,-13.672,0.000
1732204959.887,-5.859,-20.508,-135.254,-20.996,0.000
1732204959.891,-5.371,-23.926,-136.230,-20.020,0.000
1732204959.895,-17.578,-23.926,-138.184,-39.551,0.000
1732204959.898,-33.203,-24.902,-134.766,-21.973,0.000
1732204959.902,-35.645,-19.531,-136.230,-6.836,0.000
1732204959.906,-18.555,-21.973,-138.672,-33.203,0.000
1732204959.910,-12.695,-24.902,-131.836,-35.156,0.000
1732204959.914,-24.902,-14.648,-133.789,-12.695,0.000
1732204959.918,-5.859,-11.719,-142.578,-42.480,0.000
1732204959.922,7.812,-12.695,-142.090,-40.039,0.000
1732204959.926,-5.371,-20.020,-135.742,10.254,0.000
1732204959.930,-14.648,-19.531,-136.230,-12.695,0.000
1732204959.934,-16.602,-7.324,-137.207,-35.156,0.000
1732204959.938,-22.461,-11.230,-140.137,-27.832,0.000
1732204959.941,-20.020,-16.113,-154.785,-18.066,0.000
1732204959.945,-13.672,-11.230,-158.691,-25.879,0.000
1732204959.949,-15.625,-10.254,-148.438,-50.781,0.000
1732204959.953,-11.719,-6.836,-144.043,-63.965,0.000
1732204959.957,-17.578,-14.648,-150.391,-49.316,0.000
1732204959.961,-20.996,-18.555,-152.832,-24.902,0.000
1732204959.965,-35.645,-12.695,-150.879,-28.809,0.000
1732204959.969,-35.645,-15.137,-148.438,-37.598,0.000
1732204959.973,-17.578,-9.277,-146.973,-46.875,0.000
1732204959.977,-16.602,-8.301,-146.973,-55.664,0.000
1732204959.980,-20.020,-13.184,-150.391,-61.035,0.000
1732204959.984,-18.555,-15.625,-159.668,-48.828,0.000
1732204959.988,-12.207,-19.043,-161.133,-40.527,0.000
1732204959.992,-12.207,-15.625,-162.598,-21.484,0.000
1732204959.996,0.000,-17.090,-159.180,-24.902,0.000
1732204960.000,0.000,-19.043,-148.926,-18.555,0.000
1732204960.004,0.000,-15.137,-148.926,15.137,0.000
1732204960.008,0.000,-12.695,-145.996,-19.043,0.000
1732204960.012,0.000,-13.184,-145.508,-64.941,0.000
1732204960.016,0.000,-5.371,-148.438,-37.109,0.000
1732204960.020,0.000,6.348,-144.043,-18.066,0.000
1732204960.023,0.000,-7.324,-140.625,-18.066,0.000
1732204960.027,0.000,-17.578,-136.230,-29.297,0.000
1732204960.031,0.000,-11.719,-128.906,-44.922,0.000
1732204960.035,0.000,-11.230,-135.254,-50.293,0.000
1732204960.039,0.000,-12.207,-130.859,-40.527,0.000
1732204960.043,-31.738,-8.789,-123.535,-10.742,0.000
1732204960.047,-29.785,-11.719,-130.859,-13.184,0.000
1732204960.051,-30.273,-11.230,-128.418,-45.410,0.000
1732204960.055,-24.414,-1.953,-132.324,-49.316,0.000
1732204960.059,-21.484,-7.812,-140.625,-29.297,0.000
1732204960.063,-18.066,-13.672,-138.184,-32.715,0.000
1732204960.067,-12.695,-7.324,-138.184,-52.246,0.000
1732204960.070,-1.953,-7.812,-140.137,-53.223,0.000
1732204960.074,-10.254,-12.695,-142.090,-52.734,0.000
1732204960.078,-16.113,-3.906,-140.625,-46.875,0.000
1732204960.082,-9.277,-1.465,-127.930,-32.715,0.000
1732204960.086,-11.230,-1.465,-129.883,-30.273,0.000
1732204960.090,0.000,-7.324,-137.207,-29.785,0.000
1732204960.094,0.000,-13.672,-140.137,-50.293,0.000
1732204960.098,0.000,-9.277,-146.973,-52.246,0.000
1732204960.102,0.000,-8.789,-150.391,-45.410,0.000
1732204960.106,0.000,-6.836,-138.672,-43.457,0.000
1732204960.110,0.000,-8.301,-137.207,-47.363,0.000
1732204960.113,0.000,-14.648,-144.531,-41.016,0.000
1732204960.117,0.000,-8.789,-141.113,-21.973,0.000
1732204960.121,0.000,-10.742,-142.578,-17.578,0.000
1732204960.125,0.000,-11.719,-146.484,-10.742,0.000
1732204960.129,0.000,-4.883,-153.809,-3.418,0.000
1732204960.133,0.000,-2.441,-145.020,-9.277,0.000
1732204960.137,-3.418,-5.859,-145.996,-33.691,0.000
1732204960.141,-13.672,-15.137,-154.297,-34.668,0.000
1732204960.145,-23.926,-19.531,-154.297,-29.297,0.000
1732204960.149,-38.086,-19.043,-145.508,-26.367,0.000
1732204960.152,-37.109,-20.508,-147.949,-46.875,0.000
1732204960.156,-31.738,-21.973,-151.367,-37.598,0.000
1732204960.160,-23.926,-18.066,-138.672,-13.672,0.000
1732204960.164,-17.578,-11.719,-143.555,-18.066,0.000
1732204960.168,-27.344,-10.742,-148.926,-30.762,0.000
1732204960.172,-35.645,-12.695,-146.973,-18.555,0.000
1732204960.176,-37.598,-6.348,-145.020,0.977,0.000
1732204960.180,-55.664,-8.789,-148.926,-13.672,0.000
1732204960.184,-57.617,-15.625,-144.531,-18.555,0.000
1732204960.188,-55.176,-24.414,-142.090,-21.484,0.000
1732204960.192,-52.734,-25.391,-148.926,-32.715,0.000
1732204960.196,-41.504,-16.113,-155.762,-22.949,0.000
1732204960.199,-30.273,-16.113,-150.391,-14.160,0.000
1732204960.203,-31.738,-22.949,-143.555,-8.789,0.000
1732204960.207,-25.391,-18.555,-142.090,-0.977,0.000
1732204960.211,-6.836,-12.207,-145.020,6.836,0.000
1732204960.215,-19.043,-11.230,-153.809,5.859,0.000
1732204960.219,-37.109,-14.648,-153.809,21.484,0.000
1732204960.223,-35.645,-11.719,-148.926,34.668,0.000
1732204960.227,-8.301,-5.859,-133.789,23.926,0.000
1732204960.231,-8.789,-2.441,-130.859,9.277,0.000
1732204960.235,-38.574,-5.371,-134.766,6.348,0.000
1732204960.239,-36.621,-7.812,-140.137,0.488,0.000
1732204960.242,-32.227,-16.113,-149.414,-21.973,0.000
1732204960.246,-30.273,-14.648,-146.973,-26.367,0.000
1732204960.250,-31.250,-8.301,-141.602,-6.348,0.000
1732204960.254,-29.785,-16.113,-141.113,8.301,0.000
1732204960.258,-35.156,-16.113,-145.508,16.602,0.000
1732204960.262,-38.574,-18.555,-143.066,3.418,0.000
1732204960.266,-29.785,-34.180,-140.137,3.906,0.000
1732204960.270,-47.852,-32.715,-143.066,-0.488,0.000
1732204960.274,-54.199,-33.691,-141.113,-19.043,0.000
1732204960.278,-42.480,-35.156,-144.043,-24.414,0.000
1732204960.281,-37.598,-32.227,-143.066,-4.883,0.000
1732204960.285,-28.320,-31.738,-141.602,22.461,0.000
1732204960.289,-41.504,-28.320,-142.090,-10.742,0.000
1732204960.293,-69.336,-30.762,-148.926,-52.246,0.000
1732204960.297,-72.266,-41.504,-146.484,-62.500,0.000
1732204960.301,-74.707,-40.527,-139.648,-56.152,0.000
1732204960.305,-103.027,-19.531,-129.395,-62.500,0.000
1732204960.309,-123.047,-3.906,-131.348,-97.656,0.000
1732204960.313,-136.719,-3.906,-139.648,-110.352,0.000
1732204960.317,-144.531,-4.395,-125.000,-85.938,0.000
1732204960.320,-134.277,3.906,-102.539,-101.562,0.000
1732204960.324,-143.066,-8.789,-102.539,-122.070,0.000
1732204960.328,-132.812,-16.113,-115.234,-109.863,0.000
1732204960.332,-117.676,-7.324,-108.398,-98.633,0.000
1732204960.336,-132.812,-8.301,-104.492,-92.285,0.000
1732204960.340,-118.652,-3.418,-109.863,-87.891,0.000
1732204960.344,-104.492,2.930,-104.492,-62.500,0.000
1732204960.348,-105.957,-6.348,-109.863,-41.016,0.000
1732204960.352,-96.191,-16.113,-119.629,-39.551,0.000
1732204960.356,-88.379,-14.648,-118.652,-40.039,0.000
1732204960.359,-83.984,-4.883,-129.883,-49.316,0.000
1732204960.363,-80.078,-5.371,-123.535,-43.457,0.000
1732204960.367,-74.707,-10.742,-121.582,-47.363,0.000
1732204960.371,-61.035,-11.230,-127.930,-56.152,0.000
1732204960.375,-40.527,-1.465,-116.211,-33.203,0.000
1732204960.379,-23.926,9.277,-110.352,-28.320,0.000
1732204960.383,-27.344,-1.465,-102.539,-22.461,0.000
1732204960.387,-41.992,-12.695,-105.469,-9.766,0.000
1732204960.391,-38.086,-7.324,-115.234,-11.719,0.000
1732204960.395,-35.156,-6.836,-107.422,-10.254,0.000
1732204960.399,-41.992,-17.578,-105.469,-2.930,0.000
1732204960.402,-54.199,-21.973,-104.004,-3.906,0.000
1732204960.406,-51.758,-20.020,-107.910,7.812,0.000
1732204960.410,-49.805,-21.484,-107.422,-4.883,0.000
1732204960.414,-38.574,-19.531,-107.422,-20.996,0.000
1732204960.418,-21.973,-15.137,-121.094,6.836,0.000
1732204960.422,-30.273,-13.184,-133.301,2.441,0.000
1732204960.426,-40.527,-17.578,-132.812,-2.441,0.000
1732204960.430,-33.691,-20.996,-129.395,8.789,0.000
1732204960.434,-33.691,-19.531,-131.836,-5.371,0.000
1732204960.438,-32.715,-13.672,-130.859,-5.859,0.000
1732204960.442,-30.273,-11.230,-128.906,13.672,0.000
1732204960.445,-35.645,-15.625,-135.254,7.812,0.000
1732204960.449,-21.484,-10.254,-118.164,1.953,0.000
1732204960.453,-18.066,-7.812,-116.699,17.578,0.000
1732204960.457,-21.973,-8.789,-128.906,13.672,0.000
1732204960.461,-29.785,-10.254,-117.188,-0.977,0.000
1732204960.465,-15.137,-8.301,-123.047,-0.488,0.000
1732204960.469,-5.859,-4.395,-132.812,11.719,0.000
1732204960.473,-29.785,-8.789,-123.047,18.066,0.000
1732204960.477,-42.480,-10.742,-114.746,14.160,0.000
1732204960.481,-33.203,-8.301,-112.793,4.883,0.000
1732204960.485,-30.762,-15.625,-111.816,1.953,0.000
1732204960.488,-36.133,-17.578,-111.816,1.953,0.000
1732204960.492,-40.527,-19.043,-120.605,2.930,0.000
1732204960.496,-44.434,-17.578,-117.188,9.277,0.000
1732204960.500,-48.828,-18.066,-106.445,3.418,0.000
1732204960.504,-41.992,-17.578,-106.445,16.113,0.000
1732204960.508,-31.738,-12.207,-97.168,30.762,0.000
1732204960.512,0.000,-16.113,-93.750,-1.953,0.000
1732204960.516,0.000,-16.602,-98.145,-20.508,0.000
1732204960.520,0.000,-22.949,-98.633,-29.297,0.000
1732204960.524,0.000,-30.273,-99.121,-35.645,0.000
1732204960.528,0.000,-27.344,-93.750,9.277,0.000
1732204960.532,0.000,-20.020,-93.262,23.438,0.000
1732204960.535,0.000,-17.578,-89.844,-1.465,0.000
1732204960.539,0.000,-13.184,-95.215,-23.438,0.000
1732204960.543,0.000,-1.465,-101.074,-31.738,0.000
1732204960.547,0.000,-5.859,-97.168,-17.578,0.000
1732204960.551,0.000,-16.113,-88.867,-6.348,0.000
1732204960.555,0.000,-20.996,-83.984,-11.230,0.000
1732204960.559,-42.480,-18.066,-80.566,-5.859,0.000
1732204960.563,-45.898,-10.254,-77.637,-10.254,0.000
1732204960.567,-36.133,-8.789,-83.496,-13.184,0.000
1732204960.571,-36.133,-1.953,-85.449,-3.906,0.000
1732204960.575,-47.852,-2.441,-77.148,2.930,0.000
1732204960.578,-35.156,-11.719,-70.801,8.301,0.000
1732204960.582,-39.551,-11.230,-72.266,4.883,0.000
1732204960.586,-33.691,-9.277,-78.125,-17.578,0.000
1732204960.590,-29.785,-13.184,-75.195,-17.578,0.000
1732204960.594,-44.434,-11.719,-70.801,-24.902,0.000
1732204960.598,-35.156,-15.137,-75.195,-34.668,0.000
1732204960.602,-38.086,-17.578,-79.102,-19.531,0.000
1732204960.606,0.000,-19.043,-79.102,-15.137,0.000
1732204960.610,0.000,-19.043,-70.312,-11.230,0.000
1732204960.614,0.000,-15.625,-66.406,-15.137,0.000
1732204960.617,0.000,-24.414,-68.359,-10.742,0.000
1732204960.621,0.000,-26.367,-71.289,-9.766,0.000
1732204960.625,0.000,-21.973,-70.801,-25.879,0.000
1732204960.629,0.000,-20.020,-67.871,-18.555,0.000
1732204960.633,0.000,-29.297,-78.125,-3.906,0.000
1732204960.637,0.000,-39.551,-84.961,-11.230,0.000
