timestamps,TP9,AF7,AF8,TP10,Right AUX
1733122771.413,-41.016,-36.621,-50.293,-28.320,0.000
1733122771.417,-40.527,-33.691,-42.969,-26.367,0.000
1733122771.421,-23.926,-23.926,-36.621,-30.762,0.000
1733122771.425,-11.719,-23.438,-39.551,-33.203,0.000
1733122771.428,-19.043,-28.809,-41.504,-31.250,0.000
1733122771.432,-37.109,-31.250,-43.457,-34.180,0.000
1733122771.436,-36.621,-32.715,-45.410,-32.715,0.000
1733122771.440,-20.996,-25.391,-40.039,-24.902,0.000
1733122771.444,-16.602,-20.996,-38.086,-27.344,0.000
1733122771.448,-22.461,-31.738,-40.039,-28.809,0.000
1733122771.452,-35.156,-37.598,-39.062,-26.855,0.000
1733122771.456,-38.086,-31.738,-36.621,-29.785,0.000
1733122771.460,-20.996,-28.320,-39.062,-30.762,0.000
1733122771.464,-15.137,-36.133,-44.434,-24.414,0.000
1733122771.467,-14.648,-38.086,-40.527,-14.160,0.000
1733122771.471,-27.832,-36.133,-36.621,-12.695,0.000
1733122771.475,-43.457,-40.527,-42.969,-22.461,0.000
1733122771.479,-28.320,-42.969,-41.992,-22.461,0.000
1733122771.483,-15.625,-37.598,-34.180,-16.113,0.000
1733122771.487,-18.066,-33.691,-32.227,-19.043,0.000
1733122771.491,-29.785,-40.527,-37.598,-23.438,0.000
1733122771.495,-41.016,-42.969,-35.645,-29.785,0.000
1733122771.498,-29.297,-44.434,-32.715,-25.391,0.000
1733122771.502,-14.160,-36.133,-32.715,-20.996,0.000
1733122771.507,-7.812,-28.320,-34.180,-17.090,0.000
1733122771.510,-20.020,-41.504,-39.551,-11.719,0.000
1733122771.514,-40.527,-40.527,-40.527,-22.461,0.000
1733122771.518,-33.203,-33.203,-33.691,-25.391,0.000
1733122771.522,-20.508,-33.203,-33.691,-19.531,0.000
1733122771.526,-13.184,-28.809,-35.156,-14.160,0.000
1733122771.530,-16.602,-29.297,-36.621,-15.137,0.000
1733122771.534,-42.969,-34.180,-30.762,-27.344,0.000
1733122771.538,-50.293,-38.574,-23.438,-41.992,0.000
1733122771.542,-27.344,-34.180,-26.855,-28.320,0.000
1733122771.545,-26.855,-25.879,-26.367,-16.113,0.000
1733122771.549,-35.156,-23.438,-26.367,-20.020,0.000
1733122771.554,-48.828,-34.668,-28.809,-24.414,0.000
1733122771.557,-49.316,-38.086,-31.250,-28.809,0.000
1733122771.561,-33.691,-33.203,-33.203,-29.785,0.000
1733122771.565,-25.879,-34.668,-33.203,-22.949,0.000
1733122771.569,-31.250,-43.457,-36.621,-20.996,0.000
1733122771.573,-55.176,-44.922,-44.434,-26.367,0.000
1733122771.577,-51.758,-29.785,-45.410,-29.297,0.000
1733122771.581,-26.855,-27.344,-41.504,-31.250,0.000
1733122771.585,-21.484,-35.156,-42.969,-26.855,0.000
1733122771.588,-22.461,-36.133,-39.551,-12.695,0.000
1733122771.592,-41.016,-38.086,-37.598,-18.555,0.000
1733122771.596,-43.945,-36.133,-38.086,-33.203,0.000
1733122771.600,-19.043,-32.227,-32.227,-23.438,0.000
1733122771.604,-10.742,-32.715,-34.668,-14.160,0.000
1733122771.608,-17.090,-29.785,-40.527,-16.113,0.000
1733122771.612,-29.297,-32.227,-47.363,-18.555,0.000
1733122771.616,-36.621,-32.227,-47.852,-24.902,0.000
1733122771.620,-25.391,-29.785,-45.410,-26.855,0.000
1733122771.624,-19.531,-35.156,-45.898,-28.809,0.000
1733122771.628,-27.832,-36.133,-48.828,-31.250,0.000
1733122771.632,-39.062,-42.969,-50.781,-29.297,0.000
1733122771.635,-36.621,-38.086,-41.504,-26.855,0.000
1733122771.639,-26.367,-24.414,-33.203,-27.832,0.000
1733122771.643,-14.648,-24.902,-35.156,-23.926,0.000
1733122771.647,-10.254,-28.809,-36.621,-19.043,0.000
1733122771.651,-28.320,-28.809,-38.086,-19.531,0.000
1733122771.655,-40.527,-28.320,-38.574,-23.438,0.000
1733122771.659,-27.832,-29.785,-40.527,-27.344,0.000
1733122771.663,-12.695,-25.879,-45.898,-25.391,0.000
1733122771.667,-13.184,-28.320,-46.875,-22.461,0.000
1733122771.671,-25.879,-39.551,-47.852,-17.578,0.000
1733122771.675,-39.551,-42.969,-46.387,-25.391,0.000
1733122771.678,-34.180,-36.621,-44.434,-22.949,0.000
1733122771.682,-20.996,-28.809,-40.527,-14.160,0.000
1733122771.686,-17.578,-28.320,-39.062,-20.996,0.000
1733122771.690,-27.344,-31.738,-42.480,-24.902,0.000
1733122771.694,-43.457,-35.156,-45.898,-33.203,0.000
1733122771.698,-35.156,-30.762,-49.805,-38.574,0.000
1733122771.702,-19.043,-29.785,-50.293,-35.645,0.000
1733122771.706,-19.043,-32.227,-52.246,-29.297,0.000
1733122771.710,-25.879,-27.832,-52.246,-26.855,0.000
1733122771.714,-40.039,-30.762,-49.805,-31.250,0.000
1733122771.718,-38.574,-28.320,-42.969,-30.762,0.000
1733122771.721,-20.996,-23.926,-39.062,-29.785,0.000
1733122771.725,-17.578,-25.879,-44.922,-29.785,0.000
1733122771.729,-27.832,-23.438,-45.898,-32.227,0.000
1733122771.733,-36.133,-24.902,-54.199,-32.715,0.000
1733122771.737,-27.832,-27.832,-62.988,-27.832,0.000
1733122771.741,-10.254,-23.438,-53.223,-25.391,0.000
1733122771.745,-14.648,-22.461,-42.969,-33.203,0.000
1733122771.749,-28.320,-29.297,-46.387,-39.551,0.000
1733122771.753,-40.039,-29.785,-51.270,-39.551,0.000
1733122771.757,-38.574,-23.926,-46.875,-37.598,0.000
1733122771.760,-18.066,-23.926,-44.922,-35.156,0.000
1733122771.764,-5.371,-22.461,-39.062,-20.996,0.000
1733122771.768,-17.578,-30.762,-44.922,-11.230,0.000
1733122771.772,-37.598,-33.691,-54.199,-18.066,0.000
1733122771.776,-40.527,-26.855,-55.664,-32.715,0.000
1733122771.780,-28.809,-25.391,-53.223,-34.668,0.000
1733122771.784,-16.602,-19.043,-48.340,-24.414,0.000
1733122771.788,-19.531,-16.602,-46.875,-19.531,0.000
1733122771.792,-38.086,-23.438,-43.457,-23.438,0.000
1733122771.796,-46.875,-26.855,-42.480,-31.250,0.000
1733122771.800,-34.180,-20.508,-40.039,-34.668,0.000
1733122771.803,-20.508,-16.113,-38.086,-26.367,0.000
1733122771.807,-20.996,-17.578,-39.551,-21.484,0.000
1733122771.811,-33.691,-21.484,-39.062,-21.484,0.000
1733122771.815,-47.363,-22.461,-40.527,-24.414,0.000
1733122771.819,-41.016,-16.602,-41.504,-27.832,0.000
1733122771.823,-24.414,-16.602,-41.992,-22.949,0.000
1733122771.827,-19.531,-19.043,-38.086,-18.555,0.000
1733122771.831,-34.180,-21.973,-38.086,-21.973,0.000
1733122771.835,-46.387,-24.414,-41.504,-30.273,0.000
1733122771.839,-37.109,-22.461,-41.016,-38.574,0.000
1733122771.842,-33.691,-20.508,-41.504,-42.969,0.000
1733122771.846,-34.180,-25.391,-44.434,-42.480,0.000
1733122771.850,-33.203,-34.668,-43.457,-38.574,0.000
1733122771.854,-30.273,-36.621,-35.645,-38.574,0.000
1733122771.858,-13.672,-29.785,-35.645,-39.062,0.000
1733122771.862,0.000,-25.879,-38.086,-39.062,0.000
1733122771.866,2.930,-24.414,-35.645,-33.691,0.000
1733122771.870,-4.395,-28.320,-35.645,-26.367,0.000
1733122771.873,-29.785,-38.574,-38.086,-28.809,0.000
1733122771.877,-41.992,-36.133,-41.504,-37.109,0.000
1733122771.882,-31.250,-34.668,-46.875,-31.738,0.000
1733122771.886,-38.086,-44.922,-52.734,-32.227,0.000
1733122771.889,-53.711,-55.176,-55.176,-34.668,0.000
1733122771.893,-64.941,-59.570,-54.688,-31.250,0.000
1733122771.897,-61.523,-57.617,-51.758,-36.621,0.000
1733122771.901,-41.504,-50.293,-45.898,-31.250,0.000
1733122771.905,-33.691,-38.574,-37.598,-27.344,0.000
1733122771.909,-41.992,-36.133,-35.156,-26.855,0.000
1733122771.913,-61.523,-42.480,-39.551,-26.855,0.000
1733122771.917,-63.477,-43.457,-38.086,-31.250,0.000
1733122771.920,-44.434,-38.086,-33.691,-28.320,0.000
1733122771.924,-39.551,-38.086,-28.809,-24.902,0.000
1733122771.929,-46.387,-44.922,-29.297,-22.949,0.000
1733122771.932,-55.176,-48.828,-39.062,-24.414,0.000
1733122771.936,-55.664,-42.480,-41.016,-30.273,0.000
1733122771.940,-38.086,-39.062,-41.016,-35.645,0.000
1733122771.944,-29.297,-41.016,-42.480,-34.180,0.000
1733122771.948,-31.738,-46.387,-39.062,-34.180,0.000
1733122771.952,-47.852,-46.875,-35.645,-39.062,0.000
1733122771.956,-63.477,-45.898,-40.039,-46.875,0.000
1733122771.960,-46.875,-42.480,-40.039,-47.363,0.000
1733122771.963,-30.762,-40.527,-36.133,-30.273,0.000
1733122771.967,-31.738,-33.691,-33.203,-26.367,0.000
1733122771.971,-37.598,-36.133,-35.645,-31.738,0.000
1733122771.975,-46.387,-41.992,-36.621,-36.133,0.000
1733122771.979,-35.156,-33.691,-33.691,-37.109,0.000
1733122771.983,-21.973,-32.715,-38.574,-32.715,0.000
1733122771.987,-25.391,-38.574,-39.551,-34.668,0.000
1733122771.991,-34.180,-45.410,-41.992,-29.785,0.000
1733122771.995,-41.504,-41.504,-44.434,-35.156,0.000
1733122771.999,-30.273,-33.691,-38.086,-41.992,0.000
1733122772.003,-16.113,-36.133,-41.504,-35.156,0.000
1733122772.007,-23.926,-44.434,-47.363,-30.762,0.000
1733122772.010,-34.180,-42.480,-48.828,-29.785,0.000
1733122772.014,-44.434,-39.551,-45.898,-42.480,0.000
1733122772.018,-40.039,-44.922,-39.062,-41.016,0.000
1733122772.022,-27.832,-43.457,-41.504,-37.109,0.000
1733122772.026,-27.344,-46.875,-45.898,-36.133,0.000
1733122772.030,-33.691,-51.270,-44.922,-28.809,0.000
1733122772.034,-48.340,-53.223,-45.898,-32.227,0.000
1733122772.038,-45.410,-48.828,-46.875,-40.527,0.000
1733122772.042,-24.414,-44.922,-45.410,-34.668,0.000
1733122772.046,-13.184,-42.480,-38.086,-26.855,0.000
1733122772.050,-16.602,-44.434,-37.109,-25.391,0.000
1733122772.053,-32.227,-57.617,-46.875,-19.531,0.000
1733122772.057,-35.645,-51.758,-42.969,-21.973,0.000
1733122772.061,-15.137,-35.645,-33.691,-21.973,0.000
1733122772.065,-11.719,-36.133,-32.715,-22.461,0.000
1733122772.069,-24.902,-40.039,-33.203,-29.785,0.000
1733122772.073,-41.504,-45.410,-38.574,-37.598,0.000
1733122772.077,-36.621,-45.898,-44.434,-38.574,0.000
1733122772.081,-19.043,-42.969,-43.945,-30.762,0.000
1733122772.085,-19.531,-38.086,-41.992,-24.902,0.000
1733122772.089,-29.785,-43.945,-42.969,-22.461,0.000
1733122772.093,-40.039,-45.898,-40.527,-25.391,0.000
1733122772.096,-39.551,-44.922,-38.574,-22.949,0.000
1733122772.100,-22.461,-35.645,-35.645,-13.672,0.000
1733122772.104,-11.230,-24.414,-37.598,-15.625,0.000
1733122772.108,-12.207,-31.738,-41.016,-15.625,0.000
1733122772.112,-28.809,-41.016,-40.527,-13.184,0.000
1733122772.116,-43.945,-45.898,-46.387,-27.832,0.000
1733122772.120,-27.832,-34.668,-43.457,-35.645,0.000
1733122772.124,-13.672,-31.738,-39.551,-24.902,0.000
1733122772.128,-14.648,-36.133,-39.551,-13.184,0.000
1733122772.132,-26.855,-33.691,-39.551,-14.160,0.000
1733122772.135,-36.133,-32.227,-41.016,-21.484,0.000
1733122772.139,-27.344,-37.598,-40.039,-20.020,0.000
1733122772.143,-17.578,-43.945,-43.457,-10.742,0.000
1733122772.147,-24.414,-34.668,-45.410,-10.254,0.000
1733122772.151,-37.598,-33.691,-44.434,-17.090,0.000
1733122772.155,-51.270,-43.945,-43.457,-14.648,0.000
1733122772.159,-45.898,-40.527,-38.086,-18.555,0.000
1733122772.163,-23.438,-31.250,-34.668,-17.090,0.000
1733122772.167,-19.531,-32.715,-40.527,-10.742,0.000
1733122772.171,-32.227,-36.621,-46.387,-15.625,0.000
1733122772.175,-36.621,-29.297,-45.898,-19.043,0.000
1733122772.178,-30.762,-24.902,-40.039,-23.926,0.000
1733122772.182,-25.391,-29.785,-38.086,-26.367,0.000
1733122772.186,-23.438,-34.668,-40.527,-15.625,0.000
1733122772.190,-28.320,-34.668,-41.016,-15.625,0.000
1733122772.194,-41.992,-27.832,-42.969,-29.297,0.000
1733122772.198,-33.203,-29.297,-45.898,-29.297,0.000
1733122772.202,-16.602,-36.133,-39.062,-26.855,0.000
1733122772.206,-10.254,-31.250,-33.691,-22.949,0.000
1733122772.210,-18.555,-27.832,-38.086,-22.949,0.000
1733122772.214,-41.504,-39.062,-39.551,-30.762,0.000
1733122772.217,-36.133,-36.621,-38.086,-33.691,0.000
1733122772.221,-12.695,-21.484,-35.645,-30.273,0.000
1733122772.225,-6.348,-18.555,-31.738,-23.438,0.000
1733122772.229,-15.137,-27.344,-38.086,-25.391,0.000
1733122772.233,-27.344,-31.250,-39.551,-22.461,0.000
1733122772.237,-32.227,-22.461,-35.645,-28.320,0.000
1733122772.241,-26.855,-22.461,-37.109,-36.133,0.000
1733122772.245,-19.043,-31.738,-34.668,-30.273,0.000
1733122772.249,-25.391,-35.156,-37.109,-29.297,0.000
1733122772.252,-43.457,-34.668,-43.945,-41.016,0.000
1733122772.257,-46.875,-36.621,-42.969,-41.992,0.000
1733122772.261,-30.762,-35.156,-40.527,-41.504,0.000
1733122772.264,-18.066,-33.691,-39.062,-35.156,0.000
1733122772.268,-16.602,-28.320,-37.598,-19.043,0.000
1733122772.272,-28.320,-26.367,-39.062,-16.113,0.000
1733122772.276,-42.969,-40.527,-43.945,-26.855,0.000
1733122772.280,-32.715,-38.086,-41.016,-25.391,0.000
1733122772.284,-20.996,-32.715,-40.527,-24.414,0.000
1733122772.288,-23.438,-40.039,-44.922,-25.391,0.000
1733122772.292,-33.691,-36.621,-44.434,-17.578,0.000
1733122772.295,-47.363,-33.691,-41.504,-21.484,0.000
1733122772.299,-32.715,-33.203,-41.992,-22.949,0.000
1733122772.304,-23.926,-41.504,-46.387,-21.484,0.000
1733122772.307,-26.367,-39.551,-47.363,-23.438,0.000
1733122772.311,-36.621,-36.133,-50.781,-23.926,0.000
1733122772.315,-49.805,-41.016,-54.199,-24.902,0.000
1733122772.319,-39.062,-40.527,-52.246,-28.320,0.000
1733122772.323,-22.949,-40.039,-49.316,-29.297,0.000
1733122772.327,-15.137,-38.574,-47.363,-16.602,0.000
1733122772.331,-25.391,-42.969,-51.270,-18.066,0.000
1733122772.335,-49.805,-46.875,-55.176,-41.992,0.000
1733122772.339,-49.316,-49.316,-57.129,-47.363,0.000
1733122772.342,-36.133,-41.016,-54.199,-44.434,0.000
1733122772.346,-32.227,-31.250,-49.805,-40.039,0.000
1733122772.350,-40.039,-37.109,-49.316,-33.691,0.000
1733122772.354,-52.734,-44.434,-48.340,-34.668,0.000
1733122772.358,-46.387,-39.551,-45.410,-39.062,0.000
1733122772.362,-30.273,-35.645,-42.969,-39.551,0.000
1733122772.366,-28.809,-44.434,-45.410,-35.645,0.000
1733122772.370,-44.922,-53.223,-47.363,-36.133,0.000
1733122772.374,-59.570,-49.805,-46.875,-33.691,0.000
1733122772.378,-53.711,-41.992,-42.480,-35.156,0.000
1733122772.382,-31.738,-41.992,-38.086,-28.320,0.000
1733122772.385,-19.531,-31.250,-36.621,-18.555,0.000
1733122772.389,-23.438,-26.855,-43.945,-27.344,0.000
1733122772.393,-40.039,-37.109,-52.734,-38.086,0.000
1733122772.397,-39.062,-30.273,-54.688,-40.527,0.000
1733122772.401,-16.602,-20.508,-51.758,-30.273,0.000
1733122772.405,-6.348,-24.902,-49.805,-19.043,0.000
1733122772.409,-8.301,-33.691,-50.293,-15.625,0.000
1733122772.413,-26.855,-40.039,-49.805,-19.043,0.000
1733122772.417,-37.598,-36.621,-50.293,-28.809,0.000
1733122772.421,-20.020,-29.297,-48.340,-28.320,0.000
1733122772.425,-10.254,-30.762,-45.410,-25.391,0.000
1733122772.428,-18.066,-41.016,-51.758,-20.020,0.000
1733122772.432,-32.227,-39.062,-54.688,-14.160,0.000
1733122772.436,-39.062,-31.250,-51.758,-20.020,0.000
1733122772.440,-24.902,-29.297,-53.223,-11.230,0.000
1733122772.444,-13.184,-28.809,-56.152,-6.348,0.000
1733122772.448,-14.648,-29.297,-58.594,-20.996,0.000
1733122772.452,-29.297,-34.180,-53.223,-21.973,0.000
1733122772.456,-44.434,-37.598,-48.340,-22.949,0.000
1733122772.460,-33.203,-33.203,-46.387,-28.320,0.000
1733122772.464,-22.949,-30.273,-41.992,-26.367,0.000
1733122772.468,-26.367,-30.762,-40.039,-26.367,0.000
1733122772.471,-39.551,-37.109,-42.969,-23.438,0.000
1733122772.475,-53.223,-40.527,-46.875,-25.879,0.000
1733122772.479,-43.457,-35.156,-48.828,-34.668,0.000
1733122772.483,-30.273,-36.133,-45.410,-31.250,0.000
1733122772.487,-30.762,-41.504,-48.340,-29.785,0.000
1733122772.491,-40.527,-46.875,-60.059,-33.203,0.000
1733122772.495,-55.176,-44.434,-62.500,-34.668,0.000
1733122772.499,-44.922,-40.039,-58.105,-33.691,0.000
1733122772.503,-27.344,-37.109,-49.805,-28.809,0.000
1733122772.507,-29.785,-32.227,-45.898,-29.785,0.000
1733122772.511,-39.062,-41.992,-45.898,-34.180,0.000
1733122772.514,-39.062,-45.898,-41.992,-33.203,0.000
1733122772.518,-23.438,-41.504,-40.527,-29.785,0.000
1733122772.522,-7.324,-31.250,-38.086,-33.691,0.000
1733122772.526,-5.371,-24.414,-41.504,-37.109,0.000
1733122772.530,-15.137,-32.715,-43.457,-27.832,0.000
1733122772.534,-29.785,-32.227,-41.504,-25.879,0.000
1733122772.538,-32.227,-23.438,-46.387,-34.180,0.000
1733122772.542,-24.902,-27.344,-44.922,-26.367,0.000
1733122772.546,-22.949,-28.320,-42.969,-13.184,0.000
1733122772.550,-35.645,-28.320,-48.340,-14.160,0.000
1733122772.553,-52.734,-32.715,-47.363,-16.113,0.000
1733122772.557,-52.246,-28.320,-37.598,-21.484,0.000
1733122772.561,-36.133,-28.320,-37.109,-19.531,0.000
1733122772.565,-30.762,-27.832,-35.156,-15.137,0.000
1733122772.569,-39.551,-27.344,-35.156,-23.926,0.000
1733122772.573,-47.852,-37.598,-43.457,-23.926,0.000
1733122772.577,-55.176,-39.062,-40.527,-25.879,0.000
1733122772.581,-38.086,-31.738,-38.086,-23.438,0.000
1733122772.585,-22.949,-31.738,-43.457,-21.484,0.000
1733122772.589,-25.879,-33.203,-44.922,-20.996,0.000
1733122772.592,-40.527,-37.109,-42.480,-14.648,0.000
1733122772.596,-48.340,-39.062,-39.551,-23.438,0.000
1733122772.600,-27.832,-31.250,-32.227,-27.344,0.000
1733122772.604,-16.602,-29.297,-35.645,-20.996,0.000
1733122772.608,-20.508,-32.715,-41.992,-10.742,0.000
1733122772.612,-35.156,-37.598,-40.039,-16.113,0.000
1733122772.616,-59.570,-44.434,-40.527,-37.598,0.000
1733122772.620,-51.758,-40.527,-40.039,-37.109,0.000
1733122772.624,-30.273,-33.203,-35.645,-24.902,0.000
1733122772.627,-29.297,-31.738,-36.621,-24.414,0.000
1733122772.631,-35.645,-37.109,-41.504,-27.832,0.000
1733122772.635,-46.387,-39.551,-42.480,-34.180,0.000
1733122772.639,-40.527,-36.133,-38.574,-33.203,0.000
1733122772.643,-27.832,-29.785,-39.062,-28.320,0.000
1733122772.647,-19.531,-30.273,-41.016,-25.879,0.000
1733122772.651,-21.973,-42.969,-37.109,-15.625,0.000
1733122772.655,-38.086,-41.504,-39.551,-18.555,0.000
1733122772.659,-24.902,-32.227,-39.551,-25.879,0.000
1733122772.663,-1.465,-28.320,-31.738,-16.602,0.000
1733122772.666,0.977,-35.156,-34.668,-7.812,0.000
1733122772.670,-15.625,-39.551,-40.527,-15.137,0.000
1733122772.674,-31.738,-38.086,-44.922,-29.785,0.000
1733122772.678,-22.949,-38.086,-47.852,-33.203,0.000
1733122772.682,-6.348,-31.250,-43.945,-27.344,0.000
1733122772.686,-11.230,-33.691,-42.969,-30.273,0.000
1733122772.690,-22.949,-34.668,-45.898,-35.645,0.000
1733122772.694,-32.227,-35.156,-44.922,-36.133,0.000
1733122772.698,-35.156,-40.039,-44.434,-45.410,0.000
1733122772.702,-14.160,-33.691,-39.062,-39.551,0.000
1733122772.706,-4.883,-29.785,-39.062,-33.203,0.000
1733122772.709,-20.020,-36.133,-41.016,-30.273,0.000
1733122772.713,-43.945,-45.898,-44.434,-25.391,0.000
1733122772.717,-46.875,-39.551,-49.805,-34.180,0.000
1733122772.721,-26.367,-32.715,-43.457,-37.109,0.000
1733122772.725,-18.555,-40.039,-39.551,-21.484,0.000
1733122772.729,-25.391,-39.551,-38.574,-12.695,0.000
1733122772.733,-44.922,-38.574,-37.109,-19.043,0.000
1733122772.737,-54.688,-41.016,-36.133,-23.438,0.000
1733122772.741,-39.062,-34.668,-31.738,-25.391,0.000
1733122772.745,-23.438,-30.762,-31.250,-27.344,0.000
1733122772.749,-22.461,-25.879,-36.133,-25.879,0.000
1733122772.752,-37.109,-28.320,-44.434,-30.762,0.000
1733122772.756,-45.410,-41.016,-47.852,-32.227,0.000
1733122772.760,-33.691,-40.039,-43.457,-31.250,0.000
1733122772.764,-19.531,-33.691,-42.969,-34.180,0.000
1733122772.768,-23.926,-39.062,-47.363,-29.297,0.000
1733122772.772,-41.016,-46.875,-48.340,-29.297,0.000
1733122772.776,-51.758,-41.016,-48.828,-41.016,0.000
1733122772.780,-40.039,-31.738,-46.875,-45.898,0.000
1733122772.784,-21.973,-29.785,-44.922,-36.133,0.000
1733122772.788,-19.043,-31.738,-46.387,-29.785,0.000
1733122772.792,-32.715,-33.203,-49.316,-37.109,0.000
1733122772.796,-43.457,-34.668,-48.340,-40.527,0.000
1733122772.799,-32.227,-31.250,-47.852,-41.992,0.000
1733122772.803,-18.555,-28.809,-49.805,-41.016,0.000
1733122772.807,-20.996,-23.926,-45.410,-36.621,0.000
1733122772.811,-27.832,-20.996,-40.039,-29.785,0.000
1733122772.815,-40.039,-32.227,-41.016,-25.879,0.000
1733122772.819,-36.133,-33.691,-37.598,-26.855,0.000
1733122772.823,-20.996,-25.391,-29.297,-21.484,0.000
1733122772.827,-18.555,-32.715,-34.180,-19.043,0.000
1733122772.831,-35.156,-42.969,-38.574,-22.949,0.000
1733122772.835,-47.363,-40.527,-37.598,-25.391,0.000
1733122772.838,-40.039,-36.133,-41.992,-33.203,0.000
1733122772.842,-27.344,-34.180,-45.410,-32.715,0.000
1733122772.846,-18.555,-38.574,-46.875,-24.902,0.000
1733122772.850,-24.414,-38.574,-49.316,-22.949,0.000
1733122772.854,-42.480,-33.203,-45.898,-32.227,0.000
1733122772.858,-36.133,-33.691,-41.016,-34.668,0.000
1733122772.862,-9.766,-31.250,-40.039,-25.879,0.000
1733122772.866,-8.789,-30.273,-40.527,-29.785,0.000
1733122772.870,-22.461,-40.039,-42.480,-32.715,0.000
1733122772.874,-41.992,-43.457,-43.457,-33.691,0.000
1733122772.878,-45.410,-37.109,-45.410,-39.062,0.000
1733122772.881,-29.785,-36.621,-41.992,-37.598,0.000
1733122772.885,-23.926,-34.180,-39.551,-34.180,0.000
1733122772.889,-24.414,-36.133,-42.480,-30.273,0.000
1733122772.893,-33.691,-45.410,-42.480,-20.020,0.000
1733122772.897,-36.133,-36.133,-37.598,-19.531,0.000
1733122772.901,-21.484,-25.391,-32.227,-23.438,0.000
1733122772.905,-13.184,-27.344,-32.227,-13.672,0.000
1733122772.909,-15.137,-28.809,-31.738,-8.301,0.000
1733122772.913,-31.738,-34.668,-33.691,-17.578,0.000
1733122772.917,-44.922,-41.504,-38.086,-30.273,0.000
1733122772.921,-30.762,-40.527,-36.621,-27.832,0.000
1733122772.924,-20.508,-41.016,-29.785,-20.020,0.000
1733122772.928,-20.020,-39.062,-27.344,-20.020,0.000
1733122772.932,-31.250,-36.133,-30.762,-25.879,0.000
1733122772.936,-37.598,-39.062,-33.203,-25.879,0.000
1733122772.940,-24.902,-35.645,-30.762,-24.414,0.000
1733122772.944,-16.113,-28.809,-27.832,-20.996,0.000
1733122772.948,-17.578,-30.273,-35.156,-11.230,0.000
1733122772.952,-30.762,-35.156,-41.992,-8.301,0.000
1733122772.955,-37.598,-35.645,-38.574,-16.113,0.000
1733122772.960,-24.902,-28.809,-36.133,-28.320,0.000
1733122772.963,-9.766,-30.762,-36.133,-25.879,0.000
1733122772.967,-9.766,-31.250,-33.203,-16.602,0.000
1733122772.971,-20.020,-27.832,-33.203,-8.789,0.000
1733122772.975,-44.922,-35.645,-40.039,-14.648,0.000
1733122772.979,-41.504,-41.992,-43.457,-19.531,0.000
1733122772.983,-22.461,-43.945,-38.086,-14.648,0.000
1733122772.987,-21.973,-39.062,-33.691,-14.160,0.000
1733122772.991,-25.879,-26.855,-38.086,-11.230,0.000
1733122772.994,-35.156,-34.180,-39.551,-7.324,0.000
1733122772.998,-41.504,-54.199,-35.645,-9.766,0.000
1733122773.002,-36.621,-46.875,-37.598,-28.320,0.000
1733122773.006,-29.297,-38.086,-45.410,-34.180,0.000
1733122773.010,-39.551,-44.922,-50.781,-32.227,0.000
1733122773.014,-55.664,-46.875,-50.293,-37.109,0.000
1733122773.018,-49.316,-45.410,-48.828,-40.039,0.000
1733122773.022,-30.273,-42.480,-47.852,-33.203,0.000
1733122773.026,-18.555,-41.016,-51.270,-24.414,0.000
1733122773.030,-26.367,-41.504,-50.781,-26.855,0.000
1733122773.033,-47.363,-41.504,-51.270,-31.738,0.000
1733122773.037,-46.875,-42.480,-49.805,-32.715,0.000
1733122773.041,-26.367,-41.992,-44.922,-30.273,0.000
1733122773.045,-18.555,-41.016,-52.734,-34.668,0.000
1733122773.049,-23.926,-42.969,-54.199,-30.762,0.000
1733122773.053,-43.457,-50.781,-53.223,-22.949,0.000
1733122773.057,-48.340,-50.293,-55.664,-28.320,0.000
1733122773.061,-22.461,-36.133,-52.734,-26.367,0.000
1733122773.065,-12.695,-33.691,-46.387,-20.508,0.000
1733122773.069,-21.973,-34.180,-44.434,-17.090,0.000
1733122773.073,-37.109,-39.062,-41.504,-15.625,0.000
1733122773.077,-47.363,-43.945,-41.016,-20.996,0.000
1733122773.080,-38.086,-40.039,-44.434,-28.809,0.000
1733122773.084,-28.320,-35.156,-46.875,-23.926,0.000
1733122773.088,-32.227,-37.109,-44.922,-13.184,0.000
1733122773.092,-49.316,-37.598,-46.875,-20.020,0.000
1733122773.096,-59.082,-36.133,-47.852,-34.180,0.000
1733122773.100,-34.668,-34.668,-40.039,-34.668,0.000
1733122773.104,-18.066,-34.180,-42.969,-27.344,0.000
1733122773.108,-19.531,-31.250,-41.016,-18.066,0.000
1733122773.112,-33.203,-40.039,-41.016,-14.160,0.000
1733122773.116,-48.828,-46.875,-43.457,-21.973,0.000
1733122773.120,-37.109,-37.109,-40.527,-27.344,0.000
1733122773.123,-25.391,-35.156,-39.551,-27.832,0.000
1733122773.127,-29.297,-40.039,-38.574,-33.691,0.000
1733122773.131,-39.551,-45.410,-47.852,-33.203,0.000
1733122773.135,-52.246,-45.898,-47.852,-32.715,0.000
1733122773.139,-38.574,-33.691,-38.574,-42.969,0.000
1733122773.143,-10.254,-31.738,-41.016,-44.922,0.000
1733122773.147,0.000,-36.621,-46.875,-41.992,0.000
1733122773.151,0.000,-38.574,-47.852,-38.574,0.000
1733122773.155,0.000,-37.598,-49.805,-29.785,0.000
1733122773.159,0.000,-32.715,-54.199,-38.086,0.000
1733122773.163,0.000,-28.809,-52.246,-45.410,0.000
1733122773.167,0.000,-29.297,-48.828,-32.227,0.000
1733122773.171,0.000,-24.414,-45.410,-18.555,0.000
1733122773.175,0.000,-26.855,-44.434,-9.277,0.000
1733122773.178,0.000,-42.480,-40.527,-14.160,0.000
1733122773.182,0.000,-35.645,-33.203,-28.320,0.000
1733122773.186,0.000,-20.996,-36.133,-30.762,0.000
1733122773.190,0.000,-31.250,-42.969,-25.391,0.000
1733122773.194,-53.711,-35.156,-38.086,-20.996,0.000
1733122773.198,-57.129,-33.203,-34.180,-28.809,0.000
1733122773.202,-40.039,-32.715,-36.133,-31.738,0.000
1733122773.206,-29.785,-34.668,-38.086,-25.391,0.000
1733122773.210,-39.551,-42.969,-46.387,-29.297,0.000
1733122773.214,-51.270,-43.457,-40.527,-25.879,0.000
1733122773.218,-48.828,-37.598,-32.715,-25.879,0.000
1733122773.221,-29.785,-36.133,-39.551,-23.926,0.000
1733122773.225,-17.090,-30.273,-42.480,-20.020,0.000
1733122773.229,-22.461,-26.855,-41.504,-30.273,0.000
1733122773.233,-35.645,-36.621,-41.504,-24.902,0.000
1733122773.237,-38.086,-35.645,-37.598,-23.438,0.000
1733122773.241,-21.484,-31.250,-39.062,-32.227,0.000
1733122773.245,-7.812,-29.297,-37.109,-34.180,0.000
1733122773.249,-11.230,-29.297,-35.156,-27.832,0.000
1733122773.253,-26.855,-31.738,-41.504,-20.508,0.000
1733122773.257,-37.598,-33.691,-43.457,-29.297,0.000
1733122773.261,-26.367,-32.715,-44.434,-41.504,0.000
1733122773.265,-15.137,-34.180,-42.969,-34.668,0.000
1733122773.268,-16.113,-41.016,-42.969,-18.066,0.000
1733122773.272,-35.156,-36.133,-44.434,-18.066,0.000
1733122773.276,-47.363,-33.691,-43.457,-29.297,0.000
1733122773.280,-32.227,-38.574,-36.133,-28.809,0.000
1733122773.284,-19.043,-35.156,-36.621,-25.879,0.000
1733122773.288,-18.066,-25.879,-38.086,-25.879,0.000
1733122773.292,-28.809,-28.809,-39.062,-25.879,0.000
1733122773.296,-43.457,-36.621,-42.480,-27.344,0.000
1733122773.300,-36.133,-35.645,-42.480,-33.691,0.000
1733122773.304,-17.578,-27.832,-36.133,-26.855,0.000
1733122773.307,-6.836,-24.902,-30.762,-14.648,0.000
1733122773.311,-16.113,-30.762,-37.598,-17.090,0.000
1733122773.315,-33.203,-33.691,-45.410,-20.020,0.000
1733122773.319,-27.344,-30.273,-44.922,-20.996,0.000
1733122773.323,-13.672,-31.250,-40.527,-27.344,0.000
1733122773.327,-13.672,-30.273,-39.551,-27.344,0.000
1733122773.331,-23.438,-28.320,-41.504,-22.949,0.000
1733122773.335,-37.598,-31.250,-39.551,-20.020,0.000
1733122773.339,-33.691,-28.320,-32.227,-21.973,0.000
1733122773.343,-17.578,-29.785,-36.133,-24.902,0.000
1733122773.347,-11.230,-24.902,-42.969,-22.461,0.000
1733122773.350,-27.832,-29.785,-44.922,-21.973,0.000
1733122773.354,-41.992,-43.457,-44.922,-22.461,0.000
1733122773.358,-32.227,-34.668,-41.992,-20.020,0.000
1733122773.362,-22.949,-25.391,-38.574,-27.344,0.000
1733122773.366,-16.113,-25.879,-32.227,-32.715,0.000
1733122773.370,-16.113,-31.738,-32.715,-22.949,0.000
1733122773.374,-31.250,-34.668,-36.133,-15.625,0.000
1733122773.378,-36.133,-29.297,-35.645,-21.484,0.000
1733122773.382,-28.320,-31.250,-38.574,-33.691,0.000
1733122773.386,-17.578,-37.598,-46.387,-33.691,0.000
1733122773.389,-20.996,-42.969,-54.199,-27.832,0.000
1733122773.393,-38.086,-46.875,-51.758,-21.484,0.000
1733122773.397,-38.574,-45.410,-43.457,-22.461,0.000
1733122773.401,-13.184,-38.574,-40.527,-16.113,0.000
1733122773.405,-7.812,-28.809,-45.410,-17.578,0.000
1733122773.409,-26.855,-22.461,-49.805,-35.156,0.000
1733122773.413,-44.922,-32.715,-54.688,-38.574,0.000
1733122773.417,-54.199,-41.992,-55.664,-44.922,0.000
1733122773.420,-42.969,-33.691,-52.246,-52.246,0.000
1733122773.424,-38.086,-33.691,-54.688,-51.270,0.000
1733122773.429,-40.039,-43.457,-51.270,-38.086,0.000
1733122773.432,-41.504,-43.457,-47.363,-20.996,0.000
1733122773.436,-45.410,-35.645,-52.734,-28.320,0.000
1733122773.440,-40.039,-31.250,-53.711,-43.457,0.000
1733122773.444,-28.809,-35.645,-54.688,-42.480,0.000
1733122773.448,-27.344,-36.133,-55.664,-30.273,0.000
1733122773.452,-41.504,-36.133,-50.293,-24.902,0.000
1733122773.456,-49.805,-38.574,-50.293,-33.691,0.000
1733122773.460,-38.086,-34.668,-50.781,-39.551,0.000
1733122773.464,-26.855,-39.062,-51.270,-29.297,0.000
1733122773.467,-29.785,-37.598,-47.363,-27.832,0.000
1733122773.471,-38.086,-34.668,-44.434,-29.785,0.000
1733122773.475,-44.922,-37.109,-49.805,-25.391,0.000
1733122773.479,-43.457,-30.273,-49.805,-36.133,0.000
1733122773.483,-27.344,-23.926,-46.875,-42.480,0.000
1733122773.487,-17.090,-24.414,-44.922,-33.203,0.000
1733122773.491,-30.762,-35.645,-43.945,-25.391,0.000
1733122773.495,-43.457,-42.969,-42.969,-19.043,0.000
1733122773.499,-36.621,-39.551,-39.062,-20.020,0.000
1733122773.503,-21.484,-32.227,-44.434,-29.785,0.000
1733122773.507,-19.531,-34.180,-48.340,-25.391,0.000
1733122773.510,-22.949,-35.156,-42.969,-9.277,0.000
1733122773.514,-33.691,-32.227,-43.457,-9.766,0.000
1733122773.518,-38.574,-34.180,-47.363,-23.926,0.000
1733122773.522,-21.484,-34.180,-43.457,-27.832,0.000
1733122773.526,-7.812,-35.156,-42.480,-22.461,0.000
1733122773.530,-10.742,-36.133,-41.016,-11.719,0.000
1733122773.534,-23.926,-40.039,-35.156,-3.906,0.000
1733122773.538,-32.715,-40.039,-36.133,-15.137,0.000
1733122773.542,-26.367,-32.715,-35.156,-24.902,0.000
1733122773.546,-15.137,-26.855,-35.645,-19.043,0.000
1733122773.550,-18.555,-28.320,-41.016,-8.789,0.000
1733122773.553,-29.785,-31.250,-38.086,1.953,0.000
1733122773.557,-31.738,-26.367,-32.715,-4.395,0.000
1733122773.561,-20.508,-27.832,-33.203,-19.043,0.000
1733122773.565,-10.742,-33.203,-37.109,-16.113,0.000
1733122773.569,-16.113,-30.273,-38.574,-11.230,0.000
1733122773.573,-26.367,-26.855,-36.133,-6.348,0.000
1733122773.577,-33.203,-26.367,-34.668,-7.324,0.000
1733122773.581,-18.555,-23.926,-32.227,-17.578,0.000
1733122773.585,-1.465,-20.508,-31.738,-18.066,0.000
1733122773.589,-1.465,-23.926,-34.180,-13.672,0.000
1733122773.593,-19.531,-31.250,-41.992,-13.672,0.000
1733122773.596,-32.227,-38.574,-47.852,-15.625,0.000
1733122773.600,-20.996,-38.574,-44.434,-24.902,0.000
1733122773.604,-4.395,-25.879,-36.621,-29.785,0.000
1733122773.608,-0.488,-26.367,-36.133,-18.555,0.000
1733122773.612,-11.719,-33.203,-35.645,-7.324,0.000
1733122773.616,-17.578,-29.297,-34.668,-8.789,0.000
1733122773.620,-9.766,-23.926,-37.598,-22.949,0.000
1733122773.624,-0.488,-16.113,-34.668,-19.043,0.000
1733122773.628,-3.906,-17.090,-34.668,-9.766,0.000
1733122773.632,-15.137,-20.508,-39.062,-10.742,0.000
1733122773.636,-28.320,-19.043,-41.504,-16.113,0.000
1733122773.640,-20.508,-15.137,-43.945,-17.578,0.000
1733122773.644,-7.812,-21.484,-39.551,-12.207,0.000
1733122773.648,-10.254,-16.113,-33.691,-5.859,0.000
1733122773.651,-13.184,-4.883,-32.715,1.465,0.000
1733122773.655,-22.949,-11.230,-33.691,1.953,0.000
1733122773.659,-25.879,-11.719,-32.227,-4.883,0.000
1733122773.663,-4.883,-7.812,-34.180,-10.254,0.000
1733122773.667,0.977,-3.906,-41.016,-19.043,0.000
1733122773.671,-19.043,-5.859,-44.434,-22.949,0.000
1733122773.675,-31.738,-10.254,-43.457,-18.066,0.000
1733122773.679,-28.320,-5.859,-44.922,-25.879,0.000
1733122773.683,-8.789,-7.324,-48.340,-27.832,0.000
1733122773.687,0.488,-11.719,-47.363,-18.066,0.000
1733122773.690,-8.301,-8.301,-45.898,-18.555,0.000
1733122773.694,-23.926,-3.418,-50.293,-20.020,0.000
1733122773.698,-21.973,-3.418,-46.875,-20.996,0.000
1733122773.702,-1.953,-3.906,-41.504,-23.926,0.000
1733122773.706,0.488,-1.953,-39.551,-18.066,0.000
1733122773.710,-4.395,-3.906,-38.574,-5.859,0.000
1733122773.714,-11.719,-6.836,-40.039,-9.277,0.000
1733122773.718,-17.578,-10.742,-46.387,-13.672,0.000
1733122773.722,-9.277,-5.859,-49.316,-15.625,0.000
1733122773.726,1.953,0.000,-44.434,-13.184,0.000
1733122773.729,5.859,-10.254,-43.457,-7.324,0.000
1733122773.733,4.883,-13.184,-46.875,-4.883,0.000
1733122773.737,4.883,-5.859,-43.457,-10.742,0.000
1733122773.741,17.578,-0.488,-40.039,-25.879,0.000
1733122773.745,23.438,-1.953,-43.457,-25.391,0.000
1733122773.749,13.672,-4.883,-46.875,-15.137,0.000
1733122773.753,-1.953,0.000,-45.410,-7.812,0.000
1733122773.757,-20.020,-5.859,-43.945,-10.254,0.000
1733122773.761,-12.695,-10.254,-41.992,-23.926,0.000
1733122773.765,-0.977,-0.488,-42.969,-17.578,0.000
1733122773.769,-1.465,0.000,-43.457,-6.836,0.000
1733122773.773,-12.695,-5.371,-36.133,0.977,0.000
1733122773.776,-24.414,-8.301,-34.180,10.254,0.000
1733122773.780,-15.137,-5.859,-36.621,-4.883,0.000
1733122773.784,-4.883,-6.836,-39.062,-13.184,0.000
1733122773.788,-4.395,-12.695,-44.434,-11.230,0.000
1733122773.792,-15.137,-17.578,-49.316,-4.883,0.000
1733122773.796,-33.203,-15.137,-45.898,-6.348,0.000
1733122773.800,-24.902,-5.859,-39.551,-21.484,0.000
1733122773.804,-1.953,-3.906,-41.016,-22.461,0.000
1733122773.808,-1.465,-3.418,-42.480,-17.578,0.000
1733122773.812,-11.230,-5.371,-42.969,-14.648,0.000
1733122773.816,-21.973,-9.766,-41.016,-15.625,0.000
1733122773.819,-17.578,-12.207,-37.109,-18.555,0.000
1733122773.823,0.488,-12.695,-38.086,-21.484,0.000
1733122773.827,1.953,-14.648,-39.551,-20.020,0.000
1733122773.831,-11.719,-12.695,-39.551,-10.742,0.000
1733122773.835,-28.809,-11.719,-43.457,-10.254,0.000
1733122773.839,-22.461,-11.230,-43.945,-9.277,0.000
1733122773.843,-3.418,1.465,-40.039,-12.695,0.000
1733122773.847,4.395,12.207,-43.945,-13.672,0.000
1733122773.851,-0.977,7.812,-43.457,-0.488,0.000
1733122773.855,-16.113,1.465,-38.574,8.301,0.000
1733122773.859,-23.926,2.930,-43.457,-0.488,0.000
1733122773.863,-8.789,4.883,-48.828,-6.348,0.000
1733122773.867,3.418,2.930,-46.875,1.953,0.000
1733122773.870,0.488,0.488,-42.969,15.137,0.000
1733122773.874,-9.766,1.465,-40.527,19.043,0.000
1733122773.878,-15.625,2.441,-41.016,7.812,0.000
1733122773.882,-2.930,0.977,-38.574,2.930,0.000
1733122773.886,16.113,8.789,-37.598,13.184,0.000
1733122773.890,7.324,5.371,-34.180,21.484,0.000
1733122773.894,-17.090,-11.719,-29.297,20.508,0.000
1733122773.898,-22.949,-12.207,-33.691,3.906,0.000
1733122773.902,-6.836,-6.836,-36.621,-4.883,0.000
1733122773.906,4.883,-2.441,-37.109,3.906,0.000
1733122773.910,2.441,-3.906,-42.969,9.766,0.000
1733122773.913,-5.859,-6.836,-44.434,13.184,0.000
1733122773.917,-10.254,-5.371,-41.016,11.719,0.000
1733122773.921,-4.395,-5.371,-41.504,-0.488,0.000
1733122773.925,7.812,-3.418,-43.457,0.488,0.000
1733122773.929,8.789,-1.953,-41.504,9.277,0.000
1733122773.933,-12.695,-7.812,-41.992,11.230,0.000
1733122773.937,-24.414,-11.719,-46.875,5.859,0.000
1733122773.941,-9.277,-10.742,-48.340,-3.906,0.000
1733122773.945,1.465,-13.184,-46.875,1.953,0.000
1733122773.949,3.418,-3.906,-48.828,2.930,0.000
1733122773.953,-4.883,1.465,-52.246,0.488,0.000
1733122773.956,-13.672,-4.395,-48.828,9.766,0.000
1733122773.960,-4.883,-2.930,-45.898,0.488,0.000
1733122773.964,13.184,-3.906,-45.898,-7.812,0.000
1733122773.968,16.602,-6.836,-48.828,-5.371,0.000
1733122773.972,3.418,-16.113,-51.270,2.930,0.000
1733122773.976,-8.301,-17.578,-49.316,10.254,0.000
1733122773.980,-8.789,-4.395,-49.316,1.953,0.000
1733122773.984,4.395,-4.395,-46.387,-0.488,0.000
1733122773.988,8.301,-7.812,-48.340,1.465,0.000
1733122773.992,2.441,-7.812,-47.363,8.301,0.000
1733122773.996,-12.695,-10.742,-45.898,8.301,0.000
1733122773.999,-18.066,-12.695,-47.363,-1.465,0.000
1733122774.003,-0.488,-7.812,-44.922,-2.930,0.000
1733122774.007,8.301,-1.465,-44.434,4.883,0.000
1733122774.011,4.395,4.395,-41.504,14.648,0.000
1733122774.015,-4.883,2.441,-39.062,20.020,0.000
1733122774.019,-5.371,-2.930,-41.504,19.043,0.000
1733122774.023,1.953,1.953,-40.039,7.812,0.000
1733122774.027,6.348,8.789,-35.645,4.395,0.000
1733122774.030,9.277,2.441,-35.156,17.578,0.000
1733122774.034,-1.953,-2.930,-36.621,19.043,0.000
1733122774.038,-16.602,-3.906,-33.691,0.488,0.000
1733122774.042,-8.789,-5.371,-33.691,-16.113,0.000
1733122774.046,2.441,-9.277,-37.109,-14.648,0.000
1733122774.050,2.930,-10.254,-39.551,-4.395,0.000
1733122774.054,-3.418,-9.277,-45.898,3.418,0.000
1733122774.058,-10.742,-17.578,-49.316,-0.977,0.000
1733122774.062,0.488,-17.090,-47.852,-2.441,0.000
1733122774.066,12.207,-12.207,-43.457,-1.465,0.000
1733122774.070,8.789,-10.254,-43.457,-3.906,0.000
1733122774.073,-8.789,-18.555,-50.781,-1.465,0.000
1733122774.077,-22.461,-25.879,-48.828,-4.883,0.000
1733122774.081,-11.230,-21.484,-41.992,-18.066,0.000
1733122774.085,6.348,-18.066,-38.086,-17.578,0.000
1733122774.089,7.812,-20.020,-40.039,0.000,0.000
1733122774.093,-6.348,-23.926,-42.969,11.230,0.000
1733122774.097,-16.113,-26.855,-41.504,10.254,0.000
1733122774.101,-9.277,-24.414,-41.504,-1.465,0.000
1733122774.105,1.465,-23.438,-47.363,-6.836,0.000
1733122774.109,2.930,-26.367,-47.852,1.465,0.000
1733122774.113,-8.789,-26.855,-45.410,11.230,0.000
1733122774.116,-20.508,-27.344,-48.828,8.301,0.000
1733122774.120,-9.277,-30.273,-52.246,0.488,0.000
1733122774.124,5.859,-29.785,-52.246,-0.488,0.000
1733122774.128,6.836,-20.996,-44.922,2.441,0.000
1733122774.132,-2.930,-21.484,-43.945,6.836,0.000
1733122774.136,-17.090,-34.180,-44.434,8.301,0.000
1733122774.140,-13.672,-36.133,-42.480,-0.488,0.000
1733122774.144,-3.418,-29.785,-43.457,-7.812,0.000
1733122774.148,0.000,-36.133,-46.875,-4.883,0.000
1733122774.152,-8.301,-41.992,-63.477,-0.488,0.000
1733122774.156,-19.531,-39.062,-83.496,-2.930,0.000
1733122774.159,-15.137,-35.645,-80.078,-8.301,0.000
1733122774.163,-3.418,-31.738,-67.383,-10.254,0.000
1733122774.167,-2.441,-34.668,-71.777,-6.348,0.000
1733122774.171,-11.719,-34.668,-78.125,-0.488,0.000
1733122774.175,-17.578,-25.879,-72.754,-1.465,0.000
1733122774.179,-13.184,-25.391,-70.312,-8.789,0.000
1733122774.183,-4.883,-22.461,-69.336,-14.160,0.000
1733122774.187,0.488,-21.484,-64.941,-9.766,0.000
1733122774.191,4.883,-22.461,-59.082,0.977,0.000
1733122774.195,-12.207,-25.391,-60.547,0.488,0.000
1733122774.199,-21.973,-32.715,-70.312,-4.883,0.000
1733122774.203,-6.836,-28.320,-71.289,-8.789,0.000
1733122774.207,0.488,-24.902,-68.359,-13.672,0.000
1733122774.210,-0.977,-28.320,-69.824,-7.812,0.000
1733122774.214,-11.719,-27.344,-65.430,4.395,0.000
1733122774.218,-17.578,-22.461,-58.594,0.977,0.000
1733122774.222,-1.953,-18.555,-56.641,-10.742,0.000
1733122774.226,6.836,-22.461,-49.805,-6.836,0.000
1733122774.230,0.000,-27.344,-48.340,0.977,0.000
1733122774.234,-10.254,-20.020,-43.945,3.418,0.000
1733122774.238,-17.578,-21.973,-41.504,0.488,0.000
1733122774.242,-9.766,-25.391,-46.875,-9.766,0.000
1733122774.246,3.906,-17.090,-51.758,-10.742,0.000
1733122774.250,4.395,-12.207,-51.270,-5.859,0.000
1733122774.253,-8.789,-20.508,-50.781,0.000,0.000
1733122774.257,-23.926,-28.320,-52.734,0.488,0.000
1733122774.261,-13.672,-22.949,-50.293,-9.766,0.000
1733122774.265,0.000,-18.555,-51.758,-11.230,0.000
1733122774.269,0.488,-21.973,-55.176,-9.277,0.000
1733122774.273,-9.766,-31.250,-62.988,4.883,0.000
1733122774.277,-22.461,-35.156,-58.594,10.742,0.000
1733122774.281,-12.207,-25.879,-50.293,-6.348,0.000
1733122774.285,-0.488,-23.926,-50.293,-13.672,0.000
1733122774.289,-0.488,-27.344,-47.363,-8.789,0.000
1733122774.293,-3.906,-28.809,-42.480,0.977,0.000
1733122774.297,-18.066,-32.715,-49.316,-5.371,0.000
1733122774.300,-15.625,-31.250,-59.082,-20.020,0.000
1733122774.304,4.395,-31.738,-58.105,-12.207,0.000
1733122774.308,9.277,-27.344,-54.688,-8.301,0.000
1733122774.312,4.883,-25.391,-55.664,-19.531,0.000
1733122774.316,-3.418,-31.738,-61.523,-20.020,0.000
1733122774.320,-3.906,-32.715,-59.082,-22.461,0.000
1733122774.324,12.207,-27.344,-52.246,-22.461,0.000
1733122774.328,16.602,-24.902,-48.340,-11.719,0.000
1733122774.332,3.418,-28.809,-45.410,-1.953,0.000
1733122774.336,-24.902,-36.621,-45.898,-2.441,0.000
1733122774.340,-38.574,-42.480,-49.316,-16.113,0.000
1733122774.343,-24.902,-42.969,-50.781,-24.414,0.000
1733122774.347,-13.672,-41.016,-46.387,-20.020,0.000
1733122774.351,-18.066,-41.016,-46.875,-16.113,0.000
1733122774.355,-34.668,-42.969,-49.316,-12.207,0.000
1733122774.359,-42.969,-43.945,-57.617,-20.996,0.000
1733122774.363,-37.598,-50.293,-64.453,-33.691,0.000
1733122774.367,-30.273,-48.340,-57.617,-36.621,0.000
1733122774.371,-30.762,-47.363,-50.781,-33.203,0.000
1733122774.375,-43.457,-52.246,-50.781,-25.391,0.000
1733122774.379,-48.828,-46.387,-54.199,-33.691,0.000
1733122774.382,-35.156,-40.527,-53.711,-39.062,0.000
1733122774.386,-13.672,-36.133,-48.828,-24.414,0.000
1733122774.390,-7.812,-34.180,-46.387,-14.160,0.000
1733122774.394,-19.531,-36.133,-45.410,2.441,0.000
1733122774.398,-23.926,-30.273,-38.574,6.836,0.000
1733122774.402,-2.441,-22.949,-35.156,-5.371,0.000
1733122774.406,11.719,-20.996,-36.133,-3.906,0.000
1733122774.410,2.441,-32.227,-40.527,-0.977,0.000
1733122774.414,-12.207,-41.992,-44.922,0.488,0.000
1733122774.418,-23.926,-39.062,-42.480,-0.977,0.000
1733122774.422,-6.836,-40.527,-43.945,-5.859,0.000
1733122774.425,8.301,-39.062,-41.992,-6.836,0.000
1733122774.429,2.930,-32.227,-38.086,-4.883,0.000
1733122774.433,-12.695,-40.039,-51.758,-3.418,0.000
1733122774.437,-24.902,-50.781,-58.594,-4.395,0.000
1733122774.441,-16.602,-49.316,-52.734,-14.160,0.000
1733122774.445,-4.395,-43.945,-55.176,-28.809,0.000
1733122774.449,-1.465,-46.875,-57.617,-14.648,0.000
1733122774.453,-11.230,-53.711,-58.105,-2.930,0.000
1733122774.457,-22.949,-51.270,-54.688,-2.930,0.000
1733122774.461,-12.695,-46.387,-50.781,-5.371,0.000
1733122774.464,1.465,-46.387,-57.129,-11.719,0.000
1733122774.468,0.000,-48.828,-63.965,-9.277,0.000
1733122774.472,-7.324,-51.758,-63.477,-2.930,0.000
1733122774.476,-20.996,-50.781,-63.477,-4.395,0.000
1733122774.480,-19.531,-46.387,-59.570,-18.066,0.000
1733122774.484,-1.953,-49.805,-58.594,-15.625,0.000
1733122774.488,1.953,-45.898,-56.641,-7.324,0.000
1733122774.492,-8.789,-36.621,-51.270,-11.230,0.000
1733122774.496,-23.926,-46.875,-55.176,-9.766,0.000
1733122774.499,-24.902,-44.922,-53.711,-8.301,0.000
1733122774.503,-14.648,-36.621,-51.270,-18.555,0.000
1733122774.508,-12.695,-43.945,-54.199,-23.926,0.000
1733122774.511,-15.625,-47.852,-55.664,-14.648,0.000
1733122774.515,-26.855,-46.875,-60.059,-5.859,0.000
1733122774.519,-33.691,-46.875,-60.547,-11.719,0.000
1733122774.523,-19.043,-46.387,-57.617,-21.973,0.000
1733122774.527,-6.836,-52.734,-60.059,-17.090,0.000
1733122774.531,-8.789,-57.617,-58.105,-5.859,0.000
1733122774.535,-23.438,-50.293,-52.246,0.000,0.000
1733122774.539,-31.738,-49.805,-52.246,-8.789,0.000
1733122774.543,-19.531,-56.641,-55.664,-22.461,0.000
1733122774.546,-9.766,-51.758,-54.688,-18.555,0.000
1733122774.550,-17.090,-52.734,-50.781,-16.113,0.000
1733122774.555,-30.762,-66.406,-52.734,-12.207,0.000
1733122774.558,-37.109,-62.988,-55.176,-20.020,0.000
1733122774.562,-29.785,-55.664,-53.711,-28.320,0.000
1733122774.566,-13.184,-54.688,-50.781,-19.531,0.000
1733122774.570,-12.207,-53.223,-52.246,-9.277,0.000
1733122774.574,-28.320,-59.570,-57.129,-2.930,0.000
1733122774.578,-39.551,-61.035,-61.523,-4.883,0.000
1733122774.582,-27.344,-55.176,-62.500,-14.648,0.000
1733122774.586,-10.742,-59.570,-58.105,-15.137,0.000
1733122774.590,-8.301,-63.965,-50.781,1.465,0.000
1733122774.593,-20.996,-55.664,-50.293,8.789,0.000
1733122774.597,-36.133,-57.617,-55.664,-3.418,0.000
1733122774.602,-27.832,-63.965,-57.617,-15.137,0.000
1733122774.605,-10.742,-58.105,-57.129,-14.160,0.000
1733122774.609,-10.254,-51.758,-58.594,-17.090,0.000
1733122774.613,-20.020,-57.129,-62.500,-17.578,0.000
1733122774.617,-29.785,-62.988,-62.012,-11.230,0.000
1733122774.621,-23.438,-61.523,-60.547,-16.602,0.000
1733122774.625,-11.230,-49.316,-61.035,-25.391,0.000
1733122774.629,-5.859,-50.781,-59.082,-21.484,0.000
1733122774.633,-14.648,-60.547,-60.547,-7.324,0.000
1733122774.636,-33.203,-57.129,-62.012,-5.371,0.000
1733122774.640,-37.598,-59.082,-59.570,-21.973,0.000
1733122774.644,-20.996,-60.059,-56.152,-29.785,0.000
1733122774.648,-15.625,-62.500,-55.176,-19.043,0.000
1733122774.652,-25.879,-62.012,-59.570,-14.648,0.000
1733122774.656,-39.062,-58.594,-65.430,-24.414,0.000
1733122774.660,-35.156,-56.152,-65.918,-26.855,0.000
1733122774.664,-16.602,-52.246,-62.988,-25.879,0.000
1733122774.668,-8.789,-53.223,-62.500,-18.555,0.000
1733122774.672,-16.113,-55.176,-64.453,-16.602,0.000
1733122774.676,-27.344,-57.129,-60.547,-19.043,0.000
1733122774.679,-25.391,-59.082,-57.129,-17.090,0.000
1733122774.683,-15.137,-51.270,-57.129,-18.066,0.000
1733122774.687,-7.324,-44.922,-47.363,-19.043,0.000
1733122774.691,-11.719,-53.223,-46.387,-7.324,0.000
1733122774.695,-29.785,-58.105,-54.199,-4.395,0.000
1733122774.699,-32.715,-54.688,-54.199,-21.484,0.000
1733122774.703,-15.625,-51.270,-55.664,-30.273,0.000
1733122774.707,-7.324,-51.270,-54.688,-25.879,0.000
1733122774.711,-10.254,-54.688,-50.781,-19.531,0.000
1733122774.715,-22.461,-59.082,-52.246,-13.672,0.000
1733122774.719,-31.738,-59.082,-53.223,-20.508,0.000
1733122774.723,-20.020,-56.152,-50.293,-24.414,0.000
1733122774.727,-11.719,-55.664,-51.758,-20.020,0.000
1733122774.730,-9.766,-52.734,-53.711,-20.020,0.000
1733122774.734,-16.602,-55.176,-52.246,-13.672,0.000
1733122774.738,-27.344,-52.734,-51.758,-17.090,0.000
1733122774.742,-18.555,-47.363,-48.340,-30.762,0.000
1733122774.746,-5.859,-49.316,-44.434,-31.250,0.000
1733122774.750,-4.883,-51.270,-41.992,-20.020,0.000
1733122774.754,-17.090,-51.270,-38.086,-10.254,0.000
1733122774.758,-28.809,-51.270,-46.875,-16.113,0.000
1733122774.762,-16.602,-50.293,-48.340,-21.973,0.000
1733122774.766,-8.301,-51.758,-34.668,-18.066,0.000
1733122774.769,-12.695,-53.223,-36.621,-19.531,0.000
1733122774.773,-18.555,-51.758,-35.156,-20.020,0.000
1733122774.777,-31.250,-55.664,-34.180,-20.996,0.000
1733122774.781,-28.320,-55.176,-38.086,-27.832,0.000
1733122774.785,-17.578,-51.758,-36.133,-27.344,0.000
1733122774.789,-15.137,-45.410,-37.109,-28.320,0.000
1733122774.793,-19.043,-41.992,-41.504,-23.926,0.000
1733122774.797,-32.227,-42.969,-43.457,-18.555,0.000
1733122774.801,-26.855,-42.480,-40.527,-22.461,0.000
1733122774.805,-14.160,-39.551,-44.922,-21.484,0.000
1733122774.809,-10.742,-37.598,-43.945,-15.137,0.000
1733122774.812,-15.625,-49.316,-39.062,-7.324,0.000
1733122774.816,-33.203,-52.246,-37.109,-9.277,0.000
1733122774.820,-35.156,-40.527,-32.715,-23.926,0.000
1733122774.824,-20.020,-39.062,-33.691,-27.344,0.000
1733122774.828,-17.578,-43.457,-40.039,-24.902,0.000
1733122774.832,-21.973,-40.527,-43.457,-18.555,0.000
1733122774.836,-33.691,-43.457,-43.945,-16.602,0.000
1733122774.840,-40.527,-52.734,-47.852,-25.879,0.000
1733122774.844,-27.344,-50.293,-49.805,-30.273,0.000
1733122774.848,-14.160,-43.945,-47.363,-21.484,0.000
1733122774.851,-18.555,-48.828,-47.852,-20.020,0.000
1733122774.855,-37.598,-53.711,-49.805,-20.996,0.000
1733122774.859,-47.852,-49.805,-46.387,-23.438,0.000
1733122774.863,-32.227,-44.922,-38.574,-32.715,0.000
1733122774.867,-15.137,-42.969,-37.598,-32.715,0.000
1733122774.871,-14.160,-48.340,-35.156,-31.250,0.000
1733122774.875,-21.973,-56.152,-40.039,-16.602,0.000
1733122774.879,-26.855,-49.316,-45.898,-21.973,0.000
1733122774.883,0.000,-44.434,-40.039,-47.852,0.000
1733122774.887,0.000,-50.293,-40.039,-44.434,0.000
1733122774.890,0.000,-53.223,-41.992,-34.668,0.000
1733122774.894,0.000,-54.199,-37.598,-28.809,0.000
1733122774.898,0.000,-57.617,-38.086,-29.785,0.000
1733122774.902,0.000,-61.035,-35.645,-28.320,0.000
1733122774.906,0.000,-59.570,-30.762,-18.555,0.000
1733122774.910,0.000,-58.105,-33.203,-20.996,0.000
1733122774.914,0.000,-57.129,-35.645,-20.020,0.000
1733122774.918,0.000,-57.617,-41.504,-16.113,0.000
1733122774.922,0.000,-53.223,-41.504,-24.902,0.000
1733122774.925,0.000,-48.828,-40.527,-33.203,0.000
1733122774.930,-27.344,-52.734,-39.551,-28.320,0.000
1733122774.934,-30.762,-56.152,-41.016,-15.137,0.000
1733122774.937,-43.945,-61.035,-43.457,-16.113,0.000
1733122774.941,-41.016,-57.617,-44.922,-33.203,0.000
1733122774.945,-23.926,-52.246,-41.992,-37.598,0.000
1733122774.949,-18.555,-54.688,-38.086,-29.785,0.000
1733122774.953,-27.344,-55.176,-42.480,-20.020,0.000
1733122774.957,-38.086,-50.293,-43.945,-20.996,0.000
1733122774.961,-28.320,-44.922,-46.387,-27.344,0.000
1733122774.965,-12.695,-45.898,-44.922,-21.973,0.000
1733122774.968,-12.207,-41.992,-37.598,-10.742,0.000
1733122774.972,-15.625,-41.504,-38.574,-13.672,0.000
1733122774.977,-36.621,-59.082,-39.551,-25.391,0.000
1733122774.980,-47.363,-62.012,-40.527,-32.227,0.000
1733122774.984,-34.180,-53.711,-41.504,-37.109,0.000
1733122774.988,-27.832,-55.176,-41.504,-40.039,0.000
1733122774.992,-27.832,-54.688,-41.992,-34.180,0.000
1733122774.996,-39.551,-56.641,-42.969,-23.438,0.000
1733122775.000,-41.016,-51.270,-45.410,-28.809,0.000
1733122775.004,-33.203,-43.945,-48.340,-41.504,0.000
1733122775.008,-24.414,-45.410,-47.363,-33.691,0.000
1733122775.012,-28.809,-48.340,-42.480,-25.391,0.000
1733122775.015,-49.805,-56.641,-38.086,-30.273,0.000
1733122775.019,-41.016,-60.059,-40.039,-28.809,0.000
1733122775.023,-26.367,-43.457,-47.852,-44.922,0.000
1733122775.027,-41.016,-36.133,-43.457,-65.430,0.000
1733122775.031,-46.875,-43.457,-30.762,-56.641,0.000
1733122775.035,-60.547,-46.875,-28.320,-53.223,0.000
1733122775.039,-87.402,-46.387,-30.762,-79.102,0.000
1733122775.043,-74.219,-36.621,-29.297,-89.355,0.000
1733122775.047,-62.500,-34.180,-32.715,-83.496,0.000
1733122775.051,-67.383,-30.273,-28.809,-77.148,0.000
1733122775.055,-82.031,-28.320,-25.879,-74.219,0.000
1733122775.058,-108.887,-27.344,-35.645,-97.168,0.000
1733122775.062,-104.980,-19.043,-32.227,-118.164,0.000
1733122775.066,-97.656,-22.461,-36.133,-114.746,0.000
1733122775.070,-91.797,-20.996,-39.062,-104.492,0.000
1733122775.074,-119.141,-20.020,-41.504,-116.211,0.000
1733122775.078,-145.996,-27.344,-46.387,-127.441,0.000
1733122775.082,-130.859,-27.344,-43.945,-130.859,0.000
1733122775.086,-119.141,-22.949,-48.340,-133.789,0.000
1733122775.090,-128.418,-23.926,-55.664,-138.672,0.000
1733122775.094,-145.508,-29.785,-62.500,-147.461,0.000
1733122775.097,-154.297,-31.250,-65.430,-142.578,0.000
1733122775.101,-154.785,-30.273,-65.430,-146.973,0.000
1733122775.105,-138.184,-23.438,-64.453,-151.855,0.000
1733122775.109,-127.441,-24.902,-65.430,-141.113,0.000
1733122775.113,-130.371,-25.879,-69.824,-128.418,0.000
1733122775.117,-138.184,-21.484,-69.336,-122.070,0.000
1733122775.121,-133.301,-22.461,-67.871,-127.441,0.000
1733122775.125,-109.375,-23.438,-66.406,-124.512,0.000
1733122775.129,-96.680,-24.414,-64.453,-114.746,0.000
1733122775.133,-110.840,-34.180,-65.918,-109.375,0.000
1733122775.137,-131.348,-44.434,-69.824,-102.051,0.000
1733122775.140,-122.559,-45.410,-75.195,-104.492,0.000
1733122775.144,-89.844,-52.246,-80.566,-100.586,0.000
1733122775.148,-73.730,-42.480,-79.590,-85.938,0.000
1733122775.152,-78.613,-28.809,-83.496,-76.660,0.000
1733122775.156,-89.844,-40.527,-82.520,-59.570,0.000
1733122775.160,-85.938,-45.410,-82.520,-63.965,0.000
1733122775.164,-52.246,-40.527,-84.473,-76.660,0.000
1733122775.168,-24.902,-45.898,-83.984,-55.176,0.000
1733122775.172,-37.598,-55.664,-83.008,-33.691,0.000
1733122775.176,-59.082,-53.223,-82.520,-24.902,0.000
1733122775.179,-49.316,-48.828,-83.008,-18.555,0.000
1733122775.183,-18.066,-55.664,-81.543,-24.902,0.000
1733122775.187,-1.465,-60.059,-75.684,-21.484,0.000
1733122775.191,-4.395,-54.688,-70.312,-8.789,0.000
1733122775.195,-21.973,-54.688,-67.383,3.906,0.000
1733122775.199,-31.738,-59.570,-70.801,0.488,0.000
1733122775.203,-1.465,-54.688,-73.242,-15.625,0.000
1733122775.207,20.508,-50.293,-72.266,-11.230,0.000
1733122775.211,14.160,-53.223,-74.707,-3.418,0.000
1733122775.215,-4.395,-61.035,-78.613,0.488,0.000
1733122775.219,-17.578,-66.895,-76.660,5.371,0.000
1733122775.222,-2.930,-61.523,-72.266,1.465,0.000
1733122775.226,12.695,-51.270,-67.383,0.977,0.000
1733122775.230,8.301,-48.828,-63.477,7.324,0.000
1733122775.234,-1.465,-53.711,-65.430,18.555,0.000
1733122775.238,-7.324,-56.152,-63.965,18.066,0.000
1733122775.242,2.441,-53.711,-59.570,5.859,0.000
1733122775.246,19.531,-55.664,-62.500,13.184,0.000
1733122775.250,17.578,-60.547,-64.941,16.602,0.000
1733122775.254,5.859,-55.664,-64.941,17.578,0.000
1733122775.258,-5.859,-53.223,-62.988,25.879,0.000
1733122775.261,4.395,-57.129,-56.152,16.113,0.000
1733122775.265,32.227,-54.199,-54.688,4.883,0.000
1733122775.269,34.180,-51.270,-56.152,12.695,0.000
1733122775.273,20.508,-52.734,-54.199,35.156,0.000
1733122775.277,-0.977,-62.500,-50.781,39.062,0.000
1733122775.281,-7.324,-63.965,-48.340,12.695,0.000
1733122775.285,16.113,-55.664,-50.293,-2.930,0.000
1733122775.289,26.855,-56.152,-53.223,0.488,0.000
1733122775.293,13.672,-55.664,-49.805,14.648,0.000
1733122775.296,-19.043,-60.547,-49.316,25.879,0.000
1733122775.300,-24.902,-60.059,-48.828,9.277,0.000
1733122775.304,14.648,-49.316,-42.480,0.977,0.000
1733122775.308,29.785,-52.734,-39.062,8.301,0.000
1733122775.312,9.277,-58.105,-40.039,17.090,0.000
1733122775.316,-15.625,-57.617,-40.039,30.762,0.000
1733122775.320,-16.113,-54.688,-41.504,15.625,0.000
1733122775.324,5.371,-54.199,-43.457,-2.441,0.000
1733122775.328,16.113,-51.270,-44.922,2.930,0.000
1733122775.332,7.324,-48.828,-49.805,4.395,0.000
1733122775.336,-18.066,-58.594,-50.293,11.719,0.000
1733122775.339,-29.785,-58.594,-45.410,3.906,0.000
1733122775.343,-4.395,-41.016,-44.434,-13.672,0.000
1733122775.347,13.184,-33.203,-44.922,-11.719,0.000
1733122775.351,7.812,-40.039,-47.852,-6.348,0.000
1733122775.355,-17.578,-46.387,-53.711,0.488,0.000
1733122775.359,-35.156,-41.504,-53.223,-5.371,0.000
1733122775.363,-14.648,-38.574,-45.410,-18.555,0.000
1733122775.367,0.977,-44.922,-45.410,-24.414,0.000
1733122775.371,-7.324,-51.758,-48.828,-20.508,0.000
1733122775.375,-30.273,-50.781,-47.363,-11.719,0.000
1733122775.379,-49.316,-43.945,-41.992,-10.742,0.000
1733122775.382,-24.414,-45.410,-44.434,-15.625,0.000
1733122775.386,-1.465,-39.551,-43.457,-17.090,0.000
1733122775.390,-4.883,-31.250,-34.668,-13.672,0.000
1733122775.394,-21.484,-34.180,-36.133,1.465,0.000
1733122775.398,-40.527,-36.621,-40.039,-1.953,0.000
1733122775.402,-27.344,-37.109,-39.551,-24.414,0.000
1733122775.406,-6.348,-30.762,-40.527,-32.715,0.000
1733122775.410,-3.418,-32.227,-37.598,-26.367,0.000
1733122775.414,-30.762,-43.945,-40.039,-19.531,0.000
1733122775.418,-56.152,-47.852,-42.480,-18.555,0.000
1733122775.422,-41.016,-42.969,-42.480,-34.668,0.000
1733122775.425,-20.996,-42.969,-45.410,-49.805,0.000
1733122775.429,-22.461,-49.805,-50.781,-34.180,0.000
1733122775.433,-40.527,-45.898,-45.898,-17.578,0.000
1733122775.437,-65.430,-42.969,-43.457,-30.762,0.000
1733122775.441,-54.199,-49.805,-41.992,-47.852,0.000
1733122775.445,-20.020,-44.922,-41.016,-52.734,0.000
1733122775.449,-1.953,-36.133,-41.504,-49.316,0.000
1733122775.453,-2.930,-38.086,-43.457,-40.527,0.000
1733122775.457,-19.531,-43.945,-42.480,-32.227,0.000
1733122775.461,-20.996,-40.039,-36.621,-31.738,0.000
1733122775.465,-10.254,-33.691,-37.598,-37.109,0.000
1733122775.468,-21.973,-36.133,-41.504,-36.133,0.000
1733122775.472,-33.203,-43.945,-42.969,-26.855,0.000
1733122775.476,-42.480,-46.387,-41.016,-19.531,0.000
1733122775.480,-43.457,-40.039,-37.598,-26.855,0.000
1733122775.484,-30.762,-38.574,-37.598,-33.203,0.000
1733122775.488,-19.531,-41.016,-37.109,-20.996,0.000
1733122775.492,-20.996,-41.016,-35.156,-17.578,0.000
1733122775.496,-36.621,-41.504,-40.039,-22.461,0.000
1733122775.500,-41.992,-42.969,-46.875,-30.273,0.000
1733122775.504,-28.320,-38.086,-44.434,-41.016,0.000
1733122775.508,-14.160,-34.668,-41.504,-37.598,0.000
1733122775.512,-22.461,-39.062,-42.969,-32.715,0.000
1733122775.515,-38.086,-35.645,-39.551,-29.785,0.000
1733122775.519,-39.062,-33.691,-33.203,-23.438,0.000
1733122775.523,-26.367,-30.762,-28.320,-24.902,0.000
1733122775.527,-20.020,-26.855,-29.297,-34.180,0.000
1733122775.531,-28.809,-39.062,-36.621,-29.785,0.000
1733122775.535,-41.016,-47.852,-39.551,-26.367,0.000
1733122775.539,-57.617,-43.945,-42.969,-36.133,0.000
1733122775.543,-49.805,-38.574,-43.945,-41.992,0.000
1733122775.547,-27.344,-40.527,-39.551,-38.574,0.000
1733122775.551,-28.320,-45.410,-39.551,-33.691,0.000
1733122775.554,-41.504,-47.852,-42.480,-31.250,0.000
1733122775.558,-52.246,-49.316,-45.898,-36.133,0.000
1733122775.562,-50.293,-44.922,-43.945,-42.480,0.000
1733122775.566,-38.574,-39.062,-43.945,-41.504,0.000
1733122775.570,-29.297,-34.668,-47.363,-38.086,0.000
1733122775.574,-34.668,-37.598,-45.898,-31.738,0.000
1733122775.578,-44.434,-45.410,-47.852,-28.320,0.000
1733122775.582,-33.203,-40.039,-48.828,-30.273,0.000
1733122775.586,-24.414,-37.109,-44.434,-35.156,0.000
1733122775.590,-30.762,-41.992,-44.434,-32.227,0.000
1733122775.594,-39.551,-41.016,-48.340,-33.691,0.000
1733122775.597,-49.805,-41.016,-48.828,-39.062,0.000
1733122775.601,-44.434,-35.645,-45.410,-41.504,0.000
1733122775.605,-28.809,-35.645,-47.363,-46.875,0.000
1733122775.609,-19.043,-41.016,-51.758,-35.645,0.000
1733122775.613,-23.438,-41.504,-49.805,-22.949,0.000
1733122775.617,-37.109,-41.504,-41.992,-27.344,0.000
1733122775.621,-40.039,-44.922,-38.574,-37.109,0.000
1733122775.625,-28.320,-45.410,-37.109,-40.039,0.000
1733122775.629,-11.719,-40.527,-34.180,-28.809,0.000
1733122775.633,-17.090,-38.086,-36.621,-21.484,0.000
1733122775.636,-39.062,-41.504,-41.016,-22.949,0.000
1733122775.640,-42.480,-41.504,-40.039,-32.227,0.000
1733122775.644,-25.879,-39.062,-39.551,-45.898,0.000
1733122775.648,-20.020,-41.992,-42.480,-45.898,0.000
1733122775.652,-26.855,-50.293,-42.969,-34.668,0.000
1733122775.656,-41.504,-52.246,-41.504,-24.902,0.000
1733122775.660,-50.293,-43.945,-41.016,-33.691,0.000
1733122775.664,-34.180,-41.992,-38.086,-40.527,0.000
1733122775.668,-20.996,-40.527,-34.180,-36.621,0.000
1733122775.671,-26.855,-36.621,-34.668,-33.203,0.000
1733122775.675,-38.086,-37.109,-38.574,-23.438,0.000
1733122775.679,-39.062,-37.598,-36.133,-21.973,0.000
1733122775.683,-24.902,-32.715,-33.203,-23.438,0.000
1733122775.687,-16.113,-37.109,-36.133,-20.020,0.000
1733122775.691,-17.578,-38.574,-34.180,-21.484,0.000
1733122775.695,-28.320,-40.527,-35.645,-17.090,0.000
1733122775.699,-41.504,-49.316,-36.133,-12.207,0.000
1733122775.703,-30.273,-45.410,-30.762,-14.648,0.000
1733122775.707,-21.973,-42.969,-33.691,-24.902,0.000
1733122775.711,-29.785,-44.922,-35.156,-33.203,0.000
1733122775.714,-39.062,-48.828,-37.109,-23.926,0.000
1733122775.718,-47.852,-42.969,-39.551,-24.902,0.000
1733122775.722,-39.551,-29.297,-36.133,-42.969,0.000
1733122775.726,-30.273,-29.297,-37.109,-44.434,0.000
1733122775.730,-34.180,-36.621,-40.039,-34.668,0.000
1733122775.734,-45.898,-43.945,-41.992,-34.180,0.000
1733122775.738,-54.688,-44.434,-39.551,-39.062,0.000
1733122775.742,-45.410,-40.039,-29.785,-43.945,0.000
1733122775.746,-29.297,-35.645,-25.391,-43.457,0.000
1733122775.750,-30.762,-35.645,-27.344,-35.645,0.000
1733122775.754,-44.434,-36.133,-27.832,-29.785,0.000
1733122775.757,-52.246,-40.039,-23.926,-24.902,0.000
1733122775.761,-41.504,-34.668,-22.461,-26.855,0.000
1733122775.765,-28.809,-24.414,-29.297,-35.645,0.000
1733122775.769,-28.809,-25.391,-28.809,-37.598,0.000
1733122775.773,0.000,-34.668,-27.344,-23.926,0.000
1733122775.777,0.000,-36.621,-26.855,-13.672,0.000
1733122775.781,0.000,-28.809,-23.926,-26.367,0.000
1733122775.785,0.000,-26.855,-25.879,-35.645,0.000
1733122775.789,0.000,-25.879,-25.879,-28.809,0.000
1733122775.793,0.000,-32.715,-29.297,-18.555,0.000
1733122775.797,0.000,-34.180,-33.691,-16.602,0.000
1733122775.800,0.000,-30.762,-35.645,-24.902,0.000
1733122775.804,0.000,-37.109,-41.504,-28.809,0.000
1733122775.808,0.000,-37.598,-43.457,-26.367,0.000
1733122775.812,0.000,-37.598,-41.992,-28.320,0.000
1733122775.816,0.000,-42.969,-41.016,-22.949,0.000
1733122775.820,-47.852,-39.062,-39.551,-21.484,0.000
1733122775.824,-34.180,-33.691,-34.668,-31.738,0.000
1733122775.828,-30.762,-35.645,-33.691,-32.715,0.000
1733122775.832,-28.809,-32.715,-37.598,-25.879,0.000
1733122775.836,-39.551,-30.762,-40.527,-30.762,0.000
1733122775.840,-49.316,-34.180,-41.992,-39.062,0.000
1733122775.843,-39.551,-28.320,-39.551,-42.480,0.000
1733122775.847,-24.902,-29.297,-41.016,-33.691,0.000
1733122775.851,-28.320,-34.180,-45.898,-29.297,0.000
1733122775.855,-41.504,-28.320,-41.992,-26.855,0.000
1733122775.859,-49.316,-31.738,-41.504,-34.668,0.000
1733122775.863,-39.551,-27.344,-36.133,-42.969,0.000
1733122775.867,-22.949,-19.531,-32.227,-32.227,0.000
1733122775.871,-18.066,-25.391,-36.621,-28.809,0.000
1733122775.875,-23.926,-32.227,-39.551,-23.926,0.000
1733122775.879,-38.574,-31.738,-43.945,-27.832,0.000
1733122775.883,-33.203,-25.391,-38.086,-38.574,0.000
1733122775.886,-17.578,-25.391,-31.738,-38.086,0.000
1733122775.890,-20.020,-29.297,-34.180,-31.738,0.000
1733122775.894,-35.156,-41.504,-43.945,-19.043,0.000
1733122775.898,-52.734,-44.434,-49.316,-22.949,0.000
1733122775.902,-44.434,-32.227,-42.969,-40.527,0.000
1733122775.906,-28.809,-31.738,-38.086,-43.457,0.000
1733122775.910,-30.762,-35.156,-33.203,-34.180,0.000
1733122775.914,-44.922,-36.621,-39.062,-27.344,0.000
1733122775.918,-66.895,-44.922,-48.340,-39.551,0.000
1733122775.922,-66.406,-49.805,-51.270,-51.270,0.000
1733122775.925,-42.480,-43.457,-49.316,-43.457,0.000
1733122775.929,-31.738,-37.598,-47.852,-38.086,0.000
1733122775.933,-39.062,-39.551,-53.223,-31.738,0.000
1733122775.937,-50.293,-42.969,-52.734,-21.973,0.000
1733122775.941,-48.340,-38.086,-47.363,-28.320,0.000
1733122775.945,-35.156,-29.785,-47.852,-41.016,0.000
1733122775.949,-29.297,-34.180,-53.711,-40.527,0.000
1733122775.953,-35.156,-39.551,-55.664,-36.133,0.000
1733122775.957,-45.898,-37.598,-53.711,-32.715,0.000
1733122775.961,-46.387,-35.645,-52.246,-39.551,0.000
1733122775.964,-32.227,-33.691,-49.316,-45.898,0.000
1733122775.968,-19.531,-33.691,-49.316,-42.480,0.000
1733122775.972,-22.461,-36.621,-49.805,-35.156,0.000
1733122775.976,-40.039,-41.016,-48.828,-30.762,0.000
1733122775.980,-50.293,-43.945,-51.758,-43.457,0.000
1733122775.984,-36.133,-44.434,-53.711,-51.270,0.000
1733122775.988,-26.367,-38.086,-50.781,-49.316,0.000
1733122775.992,-28.809,-33.203,-49.805,-51.270,0.000
1733122775.996,-36.133,-37.598,-52.734,-47.852,0.000
1733122775.999,-27.832,-31.250,-42.969,-42.480,0.000
1733122776.003,-7.812,-18.555,-36.621,-47.363,0.000
1733122776.008,-4.395,-22.949,-43.457,-53.223,0.000
1733122776.011,-9.766,-28.809,-46.387,-47.363,0.000
1733122776.015,-23.438,-31.738,-40.527,-39.062,0.000
1733122776.019,-40.039,-31.738,-41.016,-39.062,0.000
1733122776.023,-39.062,-31.250,-45.898,-41.016,0.000
1733122776.027,-31.738,-37.598,-41.504,-35.645,0.000
1733122776.031,-35.645,-39.551,-38.086,-31.738,0.000
1733122776.035,-50.293,-32.227,-39.062,-34.180,0.000
1733122776.039,-62.500,-33.691,-46.387,-37.598,0.000
1733122776.043,-48.340,-37.109,-47.852,-38.574,0.000
1733122776.046,-28.809,-28.320,-43.457,-37.598,0.000
1733122776.050,-28.320,-26.367,-46.387,-41.992,0.000
1733122776.054,-38.574,-32.715,-46.875,-36.133,0.000
1733122776.058,-49.316,-36.133,-47.852,-32.227,0.000
1733122776.062,-39.551,-34.180,-41.504,-36.133,0.000
1733122776.066,-25.391,-33.203,-32.715,-35.645,0.000
1733122776.070,-28.320,-34.180,-34.180,-37.109,0.000
1733122776.074,-40.039,-34.668,-35.156,-33.691,0.000
1733122776.078,-48.340,-40.527,-36.133,-31.738,0.000
1733122776.082,-39.062,-33.691,-38.086,-35.645,0.000
1733122776.086,-24.902,-26.855,-39.551,-39.551,0.000
1733122776.089,-24.414,-32.715,-41.504,-39.062,0.000
1733122776.093,-33.691,-29.785,-45.410,-32.715,0.000
1733122776.097,-42.480,-22.949,-39.551,-39.551,0.000
1733122776.101,-37.598,-25.879,-31.250,-45.410,0.000
1733122776.105,-26.367,-25.391,-29.785,-41.504,0.000
1733122776.109,-19.531,-23.926,-26.367,-40.527,0.000
1733122776.113,-23.926,-23.926,-24.414,-34.180,0.000
1733122776.117,-41.504,-32.715,-28.809,-35.156,0.000
1733122776.121,-42.480,-40.039,-34.668,-43.457,0.000
1733122776.125,-23.438,-36.621,-36.621,-40.039,0.000
1733122776.129,-17.090,-33.203,-46.875,-38.086,0.000
1733122776.132,-20.020,-42.969,-50.293,-27.832,0.000
1733122776.136,-32.715,-48.828,-43.457,-19.043,0.000
1733122776.140,-35.156,-35.645,-40.039,-31.250,0.000
1733122776.144,-21.973,-32.227,-39.062,-40.039,0.000
1733122776.148,-22.461,-33.691,-46.387,-38.574,0.000
1733122776.152,-25.879,-33.203,-46.387,-32.715,0.000
1733122776.156,-37.598,-34.668,-41.504,-33.691,0.000
1733122776.160,-50.781,-40.527,-42.969,-42.969,0.000
1733122776.164,-37.109,-43.457,-43.457,-44.922,0.000
1733122776.168,-29.297,-43.457,-43.457,-43.945,0.000
1733122776.172,-38.086,-45.410,-45.410,-40.039,0.000
1733122776.175,-47.363,-45.898,-44.434,-32.227,0.000
1733122776.179,-47.363,-52.734,-44.434,-28.320,0.000
1733122776.183,-30.273,-41.504,-43.945,-29.785,0.000
1733122776.187,-17.090,-25.879,-39.551,-31.738,0.000
1733122776.191,-20.996,-35.645,-41.016,-26.855,0.000
1733122776.195,-35.156,-41.504,-45.898,-18.066,0.000
1733122776.199,-44.434,-40.039,-44.434,-22.949,0.000
1733122776.203,-33.203,-36.133,-37.109,-33.203,0.000
1733122776.207,-20.020,-38.574,-28.809,-27.832,0.000
1733122776.211,-23.438,-41.992,-31.738,-23.438,0.000
1733122776.215,-36.133,-44.922,-35.156,-18.066,0.000
1733122776.218,-46.387,-45.898,-34.668,-17.090,0.000
1733122776.222,-28.809,-43.457,-34.180,-7.812,0.000
1733122776.226,-2.930,-41.016,-36.621,1.465,0.000
1733122776.230,-9.277,-32.715,-36.133,-15.625,0.000
1733122776.234,-40.039,-29.785,-35.645,-40.527,0.000
1733122776.238,-56.641,-34.668,-34.180,-42.480,0.000
1733122776.242,-45.410,-29.297,-31.250,-38.086,0.000
1733122776.246,-38.086,-24.414,-33.691,-40.527,0.000
1733122776.250,-36.621,-24.902,-37.598,-39.551,0.000
1733122776.254,-45.410,-26.855,-38.574,-37.598,0.000
1733122776.257,-60.059,-36.133,-38.574,-35.645,0.000
1733122776.261,-54.688,-40.039,-41.016,-47.363,0.000
1733122776.265,-32.715,-32.715,-41.016,-45.898,0.000
1733122776.269,-24.414,-35.645,-39.062,-26.855,0.000
1733122776.273,-36.621,-40.039,-41.016,-22.949,0.000
1733122776.277,-49.316,-33.691,-43.945,-27.832,0.000
1733122776.281,-44.434,-30.762,-39.551,-29.297,0.000
1733122776.285,-30.273,-22.949,-34.668,-31.250,0.000
1733122776.289,-28.809,-21.484,-36.133,-34.180,0.000
1733122776.293,-34.668,-28.320,-36.133,-34.668,0.000
1733122776.297,-48.340,-33.203,-37.598,-30.762,0.000
1733122776.300,-60.059,-34.668,-38.086,-42.969,0.000
1733122776.304,-41.016,-34.180,-38.574,-53.711,0.000
1733122776.308,-16.602,-36.621,-35.645,-48.828,0.000
1733122776.312,-23.438,-43.945,-37.598,-42.480,0.000
1733122776.316,-55.176,-47.363,-41.016,-34.180,0.000
1733122776.320,-63.965,-42.969,-41.016,-46.387,0.000
1733122776.324,-41.504,-45.410,-41.992,-55.664,0.000
1733122776.328,-23.438,-48.828,-41.992,-51.270,0.000
1733122776.332,-28.809,-51.270,-41.504,-48.340,0.000
1733122776.336,-55.664,-47.363,-41.504,-39.062,0.000
1733122776.339,-68.359,-41.016,-36.621,-39.062,0.000
1733122776.343,-49.316,-35.645,-35.645,-50.293,0.000
1733122776.347,-29.297,-31.738,-41.016,-54.199,0.000
1733122776.351,-28.320,-35.156,-46.875,-41.992,0.000
1733122776.355,-54.199,-44.434,-48.340,-32.715,0.000
1733122776.359,-73.730,-47.852,-45.898,-28.320,0.000
1733122776.363,-52.246,-39.551,-41.992,-37.598,0.000
1733122776.367,-29.785,-37.598,-43.945,-44.922,0.000
1733122776.371,-20.508,-36.133,-40.039,-32.227,0.000
1733122776.374,-39.062,-32.715,-36.621,-21.484,0.000
1733122776.378,-62.988,-35.645,-41.504,-24.902,0.000
1733122776.382,-43.457,-30.273,-38.086,-40.527,0.000
1733122776.386,-17.578,-25.391,-36.133,-41.992,0.000
1733122776.390,-19.531,-28.320,-37.109,-35.156,0.000
1733122776.394,-41.504,-29.297,-34.668,-33.691,0.000
1733122776.398,-62.012,-31.250,-35.645,-38.086,0.000
1733122776.402,-47.852,-29.785,-41.992,-46.875,0.000
1733122776.406,-21.484,-25.879,-38.574,-50.293,0.000
1733122776.410,-15.625,-20.508,-27.344,-45.898,0.000
1733122776.413,-30.762,-26.367,-34.668,-38.086,0.000
1733122776.417,-58.594,-36.133,-44.922,-37.109,0.000
1733122776.421,-57.617,-36.621,-40.039,-53.711,0.000
1733122776.425,-30.273,-31.250,-39.551,-62.500,0.000
1733122776.429,-24.414,-36.621,-43.457,-54.199,0.000
1733122776.433,-37.109,-39.551,-39.062,-45.898,0.000
1733122776.437,-56.641,-38.086,-38.086,-36.133,0.000
1733122776.441,-53.711,-36.621,-39.551,-41.992,0.000
1733122776.445,-18.066,-24.902,-33.203,-46.387,0.000
1733122776.449,-6.836,-33.203,-28.320,-32.227,0.000
1733122776.453,-23.926,-38.574,-27.832,-25.391,0.000
1733122776.457,-52.734,-33.691,-28.809,-25.391,0.000
1733122776.460,-54.688,-37.598,-28.809,-25.879,0.000
1733122776.464,-24.902,-34.180,-25.391,-35.645,0.000
1733122776.468,-11.719,-28.809,-24.902,-35.156,0.000
1733122776.472,-22.461,-27.344,-31.250,-20.020,0.000
1733122776.476,-51.758,-34.180,-36.133,-15.137,0.000
1733122776.480,-67.383,-40.039,-39.062,-27.832,0.000
1733122776.484,-41.504,-32.227,-33.691,-42.480,0.000
1733122776.488,-12.695,-28.320,-21.484,-31.250,0.000
1733122776.492,-13.184,-34.668,-23.438,-18.555,0.000
1733122776.496,-42.480,-40.039,-31.738,-14.648,0.000
1733122776.500,-60.547,-40.039,-32.227,-22.461,0.000
1733122776.503,-33.203,-30.762,-31.738,-40.527,0.000
1733122776.507,-5.859,-35.645,-34.668,-32.227,0.000
1733122776.511,-8.301,-37.109,-30.762,-19.531,0.000
1733122776.515,-33.691,-32.715,-30.273,-16.113,0.000
1733122776.519,-48.340,-37.109,-33.203,-14.648,0.000
1733122776.523,-25.879,-33.203,-33.203,-26.855,0.000
1733122776.527,-7.812,-28.809,-37.598,-36.133,0.000
1733122776.531,0.977,-20.508,-37.109,-24.414,0.000
1733122776.535,-20.508,-29.297,-36.621,-19.043,0.000
1733122776.539,-53.223,-33.203,-38.574,-32.227,0.000
1733122776.543,-35.156,-28.320,-43.945,-48.340,0.000
1733122776.546,-4.883,-29.785,-46.875,-58.105,0.000
1733122776.550,2.441,-29.297,-45.410,-58.105,0.000
1733122776.554,-20.508,-38.574,-51.758,-38.574,0.000
1733122776.558,-45.410,-41.992,-45.410,-29.297,0.000
1733122776.562,-29.785,-28.809,-35.156,-44.434,0.000
1733122776.566,-9.277,-21.973,-29.785,-52.734,0.000
1733122776.570,-12.695,-20.508,-25.391,-42.969,0.000
1733122776.574,-34.668,-23.926,-27.832,-31.250,0.000
1733122776.578,-62.988,-31.250,-27.832,-27.832,0.000
1733122776.582,-53.223,-32.715,-24.902,-35.156,0.000
1733122776.586,-21.484,-32.227,-26.367,-41.992,0.000
1733122776.589,-15.137,-40.039,-25.391,-33.203,0.000
1733122776.593,-36.133,-46.875,-29.297,-27.832,0.000
1733122776.597,-60.547,-49.805,-38.086,-19.043,0.000
1733122776.601,-56.641,-41.016,-31.738,-25.391,0.000
1733122776.605,-25.879,-30.273,-25.391,-36.133,0.000
1733122776.609,-18.555,-32.227,-30.273,-28.320,0.000
1733122776.613,-28.320,-30.273,-31.738,-17.090,0.000
1733122776.617,-45.410,-30.273,-30.273,-12.695,0.000
1733122776.621,-51.758,-36.133,-32.227,-30.273,0.000
1733122776.625,-31.250,-34.668,-29.785,-44.434,0.000
1733122776.628,-14.648,-29.297,-31.250,-37.109,0.000
1733122776.632,-16.113,-27.832,-35.156,-21.973,0.000
1733122776.636,-39.551,-31.250,-33.203,-10.254,0.000
1733122776.640,-51.270,-25.879,-35.156,-17.090,0.000
1733122776.644,-29.297,-27.832,-38.086,-31.250,0.000
1733122776.648,-11.230,-22.461,-32.715,-29.785,0.000
1733122776.652,-17.578,-14.648,-30.762,-25.391,0.000
1733122776.656,-43.457,-26.855,-37.598,-20.996,0.000
1733122776.660,-58.594,-32.227,-41.992,-29.785,0.000
1733122776.664,-38.086,-29.785,-37.109,-46.875,0.000
1733122776.668,-15.625,-26.855,-31.250,-49.805,0.000
1733122776.671,-13.184,-33.691,-32.227,-37.109,0.000
1733122776.675,-38.086,-41.504,-31.738,-22.949,0.000
1733122776.679,-60.547,-38.086,-26.855,-34.180,0.000
1733122776.683,-36.133,-35.645,-33.691,-55.176,0.000
1733122776.687,-16.113,-35.156,-38.574,-51.270,0.000
1733122776.691,-22.949,-35.156,-35.156,-39.062,0.000
1733122776.695,-46.387,-29.297,-39.062,-33.691,0.000
1733122776.699,-66.406,-32.715,-41.016,-35.645,0.000
1733122776.703,-47.852,-33.203,-37.598,-50.781,0.000
1733122776.706,-27.832,-32.715,-41.992,-61.035,0.000
1733122776.711,-27.344,-38.086,-42.480,-52.734,0.000
1733122776.714,-41.992,-41.992,-37.109,-34.668,0.000
1733122776.718,-63.965,-45.898,-32.715,-32.715,0.000
1733122776.722,-51.758,-45.410,-29.297,-45.410,0.000
1733122776.726,-24.902,-44.434,-28.320,-49.316,0.000
1733122776.730,-25.391,-46.387,-32.715,-46.875,0.000
1733122776.734,-41.504,-43.945,-34.180,-28.320,0.000
1733122776.738,-62.012,-38.574,-28.809,-17.578,0.000
1733122776.742,-53.711,-27.832,-33.691,-46.387,0.000
1733122776.746,-7.812,-22.461,-48.340,-48.828,0.000
1733122776.749,6.836,-27.832,-40.039,-28.320,0.000
1733122776.753,-34.668,-43.457,-31.250,-32.227,0.000
1733122776.758,-64.453,-48.828,-29.297,-28.809,0.000
1733122776.761,-51.270,-46.387,-27.832,-27.832,0.000
1733122776.765,-16.113,-43.945,-30.762,-25.879,0.000
1733122776.769,-3.418,-48.340,-27.344,-16.113,0.000
1733122776.773,-16.602,-55.664,-25.879,-5.859,0.000
1733122776.777,-35.645,-58.594,-27.832,6.348,0.000
1733122776.781,-32.715,-54.199,-19.531,8.789,0.000
1733122776.785,3.418,-42.969,-13.184,5.859,0.000
1733122776.789,13.184,-35.156,-17.090,1.953,0.000
1733122776.793,-4.883,-43.945,-16.113,7.812,0.000
1733122776.796,-22.949,-49.316,-16.113,18.555,0.000
1733122776.800,-35.156,-42.480,-24.414,0.000,0.000
1733122776.804,-14.160,-42.969,-25.879,-19.043,0.000
1733122776.808,4.883,-45.898,-19.531,-11.230,0.000
1733122776.812,-8.301,-44.922,-18.066,0.977,0.000
1733122776.816,-36.133,-42.969,-21.973,9.277,0.000
1733122776.820,-48.340,-41.504,-15.625,4.883,0.000
1733122776.824,-19.531,-46.387,-11.230,-11.719,0.000
1733122776.828,-4.883,-49.805,-19.531,-28.809,0.000
1733122776.832,-16.602,-44.434,-28.320,-25.391,0.000
1733122776.836,-43.945,-46.387,-30.273,-12.695,0.000
1733122776.839,-59.570,-51.758,-29.785,-4.395,0.000
1733122776.843,-31.738,-43.457,-27.344,-12.695,0.000
1733122776.847,-8.789,-34.180,-31.250,-26.855,0.000
1733122776.851,-11.230,-39.062,-35.645,-26.855,0.000
1733122776.855,-32.715,-44.922,-31.250,-15.137,0.000
1733122776.859,-52.246,-46.387,-31.738,-10.742,0.000
1733122776.863,-33.203,-38.574,-32.715,-24.902,0.000
1733122776.867,-10.254,-39.062,-30.273,-33.691,0.000
1733122776.871,-11.719,-45.410,-30.762,-32.715,0.000
1733122776.875,-33.691,-46.875,-32.715,-24.414,0.000
1733122776.879,-62.500,-49.805,-31.738,-23.438,0.000
1733122776.882,-48.828,-51.270,-31.738,-32.715,0.000
1733122776.886,-21.484,-44.922,-26.855,-41.016,0.000
1733122776.890,-22.461,-39.062,-25.391,-43.945,0.000
1733122776.894,-36.621,-45.898,-33.691,-32.227,0.000
1733122776.898,-64.453,-55.664,-41.504,-23.926,0.000
1733122776.902,-60.547,-55.176,-38.086,-31.738,0.000
1733122776.906,-30.273,-48.340,-37.109,-41.504,0.000
1733122776.910,-25.391,-47.363,-40.039,-42.480,0.000
1733122776.914,-42.969,-57.129,-39.551,-32.227,0.000
1733122776.918,-69.336,-61.523,-41.992,-21.973,0.000
1733122776.922,-63.965,-55.664,-43.457,-36.621,0.000
1733122776.925,-34.180,-53.711,-41.504,-50.293,0.000
1733122776.929,-27.344,-61.035,-45.898,-41.016,0.000
1733122776.933,-44.434,-62.500,-51.270,-31.250,0.000
1733122776.937,-65.430,-57.129,-54.688,-27.344,0.000
1733122776.941,-58.105,-53.223,-57.617,-38.574,0.000
1733122776.945,-29.785,-44.922,-54.199,-50.781,0.000
1733122776.949,-20.020,-43.457,-53.223,-41.992,0.000
1733122776.953,-35.156,-48.340,-62.500,-36.133,0.000
1733122776.957,-62.500,-50.293,-65.430,-26.855,0.000
1733122776.961,-64.453,-45.898,-55.176,-29.297,0.000
1733122776.965,-33.203,-42.969,-51.270,-45.410,0.000
1733122776.968,-17.090,-46.875,-50.781,-46.387,0.000
1733122776.972,-26.855,-48.828,-53.711,-36.133,0.000
1733122776.976,-56.641,-55.176,-61.035,-28.809,0.000
1733122776.980,-63.965,-54.199,-56.152,-35.645,0.000
1733122776.984,-32.227,-50.293,-52.734,-40.039,0.000
1733122776.988,-18.066,-48.340,-52.734,-39.062,0.000
1733122776.992,-24.902,-46.875,-48.340,-35.156,0.000
1733122776.996,-45.410,-49.316,-48.340,-28.320,0.000
1733122777.000,-60.547,-52.734,-50.781,-33.203,0.000
1733122777.004,-35.156,-50.781,-50.293,-44.434,0.000
1733122777.007,-16.602,-47.363,-49.805,-48.340,0.000
1733122777.011,-18.555,-50.293,-46.387,-34.180,0.000
1733122777.015,-38.574,-49.316,-47.363,-21.973,0.000
1733122777.019,-64.941,-51.758,-51.758,-23.926,0.000
1733122777.023,-48.828,-45.410,-53.223,-33.691,0.000
1733122777.027,-23.926,-35.645,-50.781,-39.551,0.000
1733122777.031,-21.484,-43.945,-45.898,-32.715,0.000
1733122777.035,-40.527,-51.270,-43.945,-21.973,0.000
1733122777.039,-62.500,-44.922,-44.434,-18.555,0.000
1733122777.043,-45.410,-38.086,-45.898,-32.715,0.000
1733122777.047,-19.531,-41.504,-43.457,-37.598,0.000
1733122777.051,-13.672,-38.574,-40.039,-28.809,0.000
1733122777.054,-27.344,-38.574,-41.016,-13.672,0.000
1733122777.058,-47.852,-42.480,-35.156,-0.488,0.000
1733122777.062,-25.879,-39.062,-39.551,-3.906,0.000
1733122777.066,5.371,-30.273,-52.246,-23.926,0.000
1733122777.070,0.000,-20.020,-51.270,-36.133,0.000
1733122777.074,-24.414,-21.973,-49.805,-32.227,0.000
1733122777.078,-44.922,-26.855,-53.223,-25.391,0.000
1733122777.082,-29.297,-23.926,-53.711,-36.621,0.000
1733122777.086,6.348,-20.508,-51.270,-51.270,0.000
1733122777.090,16.113,-25.879,-53.711,-47.363,0.000
1733122777.094,0.977,-33.203,-49.316,-31.250,0.000
1733122777.097,-25.391,-40.527,-41.504,-17.090,0.000
1733122777.101,-26.855,-40.527,-39.551,-28.809,0.000
1733122777.105,-3.906,-35.156,-41.504,-43.457,0.000
1733122777.109,-1.465,-36.133,-42.969,-33.691,0.000
1733122777.113,-17.578,-39.551,-42.480,-19.043,0.000
1733122777.117,-42.480,-38.086,-40.527,-7.812,0.000
1733122777.121,-50.293,-33.203,-37.598,-11.719,0.000
1733122777.125,-16.113,-24.414,-35.645,-18.555,0.000
1733122777.129,6.348,-19.531,-35.156,-16.113,0.000
1733122777.133,-1.465,-20.996,-33.203,-12.207,0.000
1733122777.136,-34.668,-33.691,-33.691,-11.230,0.000
1733122777.140,-51.758,-41.016,-38.086,-10.742,0.000
1733122777.144,-31.250,-26.367,-39.551,-21.973,0.000
1733122777.148,-20.508,-28.320,-40.039,-27.832,0.000
1733122777.152,-23.438,-38.086,-45.410,-21.973,0.000
1733122777.156,-39.551,-34.180,-45.410,-21.484,0.000
1733122777.160,-50.781,-29.297,-40.039,-25.391,0.000
1733122777.164,-38.574,-23.926,-41.992,-36.133,0.000
1733122777.168,-23.926,-21.973,-41.504,-32.715,0.000
1733122777.171,-20.020,-20.996,-38.574,-20.996,0.000
1733122777.175,-28.320,-19.043,-43.457,-19.043,0.000
1733122777.179,-42.480,-26.367,-48.828,-23.438,0.000
1733122777.183,-36.621,-24.902,-47.363,-28.320,0.000
1733122777.187,-20.020,-20.996,-43.945,-33.203,0.000
1733122777.191,-12.695,-17.578,-38.574,-27.344,0.000
1733122777.195,-22.461,-21.484,-36.133,-16.602,0.000
1733122777.199,-34.180,-26.367,-39.551,-18.555,0.000
1733122777.203,-23.926,-19.043,-36.621,-25.879,0.000
1733122777.207,-16.602,-14.160,-32.715,-29.297,0.000
1733122777.211,-17.090,-16.113,-35.156,-24.414,0.000
1733122777.214,-26.367,-22.949,-38.086,-14.160,0.000
1733122777.218,-43.457,-22.949,-41.504,-22.949,0.000
1733122777.222,-41.504,-19.043,-46.875,-48.828,0.000
1733122777.226,-28.809,-22.949,-41.504,-46.387,0.000
1733122777.230,-28.809,-24.414,-33.691,-31.738,0.000
1733122777.234,-41.504,-26.367,-38.574,-27.832,0.000
1733122777.238,-52.734,-31.738,-45.898,-34.180,0.000
1733122777.242,-46.387,-31.738,-40.039,-40.527,0.000
1733122777.246,-31.250,-26.855,-38.086,-44.434,0.000
1733122777.250,-31.250,-24.414,-42.480,-44.434,0.000
1733122777.254,-39.062,-24.414,-39.062,-33.691,0.000
1733122777.257,-54.688,-32.715,-38.086,-24.414,0.000
1733122777.261,-59.570,-35.645,-36.133,-35.156,0.000
1733122777.265,-46.875,-33.691,-32.715,-52.246,0.000
1733122777.269,-30.273,-37.109,-30.762,-43.945,0.000
1733122777.273,-28.809,-34.180,-26.367,-31.250,0.000
1733122777.277,-45.410,-33.691,-28.320,-26.367,0.000
1733122777.281,-48.340,-35.156,-40.039,-31.738,0.000
1733122777.285,-35.156,-31.250,-42.969,-49.316,0.000
1733122777.289,-29.297,-29.297,-39.062,-44.922,0.000
1733122777.293,-34.668,-27.832,-42.969,-34.668,0.000
1733122777.297,-48.828,-29.785,-46.875,-29.297,0.000
1733122777.300,-47.852,-36.621,-44.434,-32.227,0.000
1733122777.304,-32.715,-35.645,-41.504,-39.551,0.000
1733122777.308,-23.926,-25.391,-38.086,-37.598,0.000
1733122777.312,-22.949,-23.438,-36.621,-37.109,0.000
1733122777.316,-36.133,-34.180,-39.062,-35.156,0.000
1733122777.320,-47.852,-38.086,-41.016,-40.039,0.000
1733122777.324,-42.480,-34.668,-45.410,-47.363,0.000
1733122777.328,-27.832,-27.832,-42.969,-39.551,0.000
1733122777.332,-20.996,-28.809,-37.109,-25.391,0.000
1733122777.336,-29.297,-33.203,-39.062,-15.137,0.000
1733122777.340,-44.434,-31.250,-39.551,-19.043,0.000
1733122777.343,-44.434,-29.297,-37.109,-33.691,0.000
1733122777.347,-36.621,-31.738,-35.645,-31.738,0.000
1733122777.351,-30.273,-31.250,-36.133,-20.508,0.000
1733122777.355,-43.457,-24.414,-39.551,-19.043,0.000
1733122777.359,-59.082,-21.973,-40.527,-21.973,0.000
1733122777.363,-44.922,-19.043,-37.598,-27.832,0.000
1733122777.367,-28.320,-17.578,-37.109,-28.809,0.000
1733122777.371,-24.414,-19.043,-43.945,-26.367,0.000
1733122777.375,-28.809,-21.973,-49.805,-20.020,0.000
1733122777.379,-38.086,-22.461,-56.152,-16.113,0.000
1733122777.382,-31.250,-22.461,-47.363,-21.484,0.000
1733122777.386,-26.367,-28.320,-37.109,-28.320,0.000
1733122777.390,-32.227,-34.668,-41.016,-29.785,0.000
1733122777.394,-35.156,-38.574,-43.457,-10.742,0.000
1733122777.398,-53.223,-41.504,-36.133,-6.348,0.000
1733122777.402,-55.664,-35.156,-33.203,-29.785,0.000
1733122777.406,-33.203,-31.250,-34.180,-31.250,0.000
1733122777.410,-35.156,-33.691,-32.715,-32.715,0.000
1733122777.414,-38.574,-34.180,-35.645,-32.715,0.000
1733122777.418,-40.527,-36.133,-36.621,-28.809,0.000
1733122777.422,-40.039,-37.109,-31.738,-31.250,0.000
1733122777.425,-24.414,-37.598,-27.344,-36.621,0.000
1733122777.429,-17.090,-36.621,-33.203,-31.250,0.000
1733122777.433,-20.508,-38.574,-34.668,-22.949,0.000
1733122777.437,-34.180,-44.434,-33.203,-15.137,0.000
1733122777.441,-39.062,-37.109,-31.738,-17.578,0.000
1733122777.445,-27.832,-28.809,-29.785,-31.250,0.000
1733122777.449,-19.531,-34.668,-37.109,-30.762,0.000
1733122777.453,-22.461,-35.645,-43.945,-26.367,0.000
1733122777.457,-35.156,-37.598,-43.945,-27.344,0.000
1733122777.461,-41.504,-44.434,-44.434,-34.668,0.000
1733122777.464,-31.738,-43.945,-45.898,-41.016,0.000
1733122777.468,-26.367,-41.992,-43.945,-39.062,0.000
1733122777.472,-34.668,-39.551,-42.480,-37.598,0.000
1733122777.476,-49.805,-38.574,-45.410,-31.738,0.000
1733122777.480,-53.711,-39.551,-47.852,-32.715,0.000
1733122777.484,-40.039,-43.945,-46.875,-38.086,0.000
1733122777.488,-34.180,-42.480,-49.316,-37.109,0.000
1733122777.492,-29.785,-32.227,-48.828,-30.762,0.000
1733122777.496,-34.668,-39.551,-47.852,-22.461,0.000
1733122777.499,-42.480,-46.387,-50.781,-26.367,0.000
1733122777.503,-33.203,-41.504,-52.246,-40.527,0.000
1733122777.507,-17.090,-41.504,-49.805,-39.062,0.000
1733122777.511,-14.160,-43.945,-53.711,-35.156,0.000
1733122777.515,-25.391,-43.457,-55.176,-29.785,0.000
1733122777.519,-38.574,-40.527,-46.875,-29.297,0.000
1733122777.523,-37.109,-36.133,-39.062,-34.668,0.000
1733122777.527,-21.973,-37.109,-38.574,-32.715,0.000
1733122777.531,-18.555,-38.574,-36.621,-30.762,0.000
1733122777.535,-29.785,-35.156,-32.715,-26.855,0.000
1733122777.539,-45.410,-45.410,-40.039,-28.320,0.000
1733122777.542,-45.898,-46.875,-40.527,-38.086,0.000
1733122777.546,-28.320,-35.645,-37.598,-39.062,0.000
1733122777.550,-25.391,-30.273,-39.551,-36.133,0.000
1733122777.554,-29.785,-30.762,-36.621,-26.855,0.000
1733122777.558,-36.621,-30.762,-38.574,-23.438,0.000
1733122777.562,-35.156,-27.344,-38.086,-30.762,0.000
1733122777.566,-20.508,-20.508,-31.250,-30.273,0.000
1733122777.570,-12.207,-19.531,-30.762,-23.438,0.000
1733122777.574,-13.672,-27.832,-32.715,-10.254,0.000
1733122777.578,-29.785,-25.879,-32.227,-7.812,0.000
1733122777.582,-34.668,-15.137,-30.762,-22.949,0.000
1733122777.585,-21.484,-14.648,-33.691,-32.227,0.000
1733122777.589,-19.043,-20.996,-32.227,-21.973,0.000
1733122777.593,-25.879,-18.066,-28.809,-13.184,0.000
1733122777.597,-38.574,-22.949,-31.250,-15.625,0.000
1733122777.601,-43.457,-31.738,-35.156,-27.832,0.000
1733122777.605,-32.227,-27.832,-36.133,-43.945,0.000
1733122777.609,-27.832,-28.320,-34.668,-41.504,0.000
1733122777.613,-27.832,-33.203,-30.762,-24.902,0.000
1733122777.617,-35.645,-36.621,-35.156,-20.996,0.000
1733122777.621,-44.434,-32.715,-42.969,-36.133,0.000
1733122777.625,-31.250,-25.879,-43.945,-48.828,0.000
1733122777.628,-10.254,-21.484,-44.434,-48.340,0.000
1733122777.632,7.324,-19.531,-48.340,-35.645,0.000
1733122777.636,0.488,-22.949,-44.922,-28.809,0.000
1733122777.640,-17.578,-20.020,-37.598,-35.156,0.000
1733122777.644,-14.648,-21.973,-39.062,-41.016,0.000
1733122777.648,-7.812,-27.832,-41.016,-46.875,0.000
1733122777.652,-13.184,-30.273,-36.621,-37.598,0.000
1733122777.656,-36.133,-36.133,-37.598,-26.855,0.000
1733122777.660,-49.316,-38.574,-41.992,-26.367,0.000
1733122777.664,-34.668,-36.133,-42.480,-27.344,0.000
1733122777.668,-27.344,-38.086,-41.016,-34.668,0.000
1733122777.671,-24.414,-32.715,-40.527,-28.320,0.000
1733122777.675,-32.715,-28.809,-46.387,-23.926,0.000
1733122777.679,-50.781,-38.086,-46.387,-22.461,0.000
1733122777.683,-44.922,-38.574,-38.086,-25.391,0.000
1733122777.687,-28.809,-31.250,-36.133,-36.621,0.000
1733122777.691,-23.926,-36.133,-41.016,-36.133,0.000
1733122777.695,0.000,-40.527,0.000,-23.926,0.000
1733122777.699,0.000,-38.086,0.000,-18.555,0.000
1733122777.703,0.000,-32.227,0.000,-26.855,0.000
1733122777.707,0.000,-30.762,0.000,-24.414,0.000
1733122777.711,0.000,-34.668,0.000,-21.484,0.000
1733122777.714,0.000,-38.086,0.000,-23.926,0.000
1733122777.718,0.000,-39.551,0.000,-23.926,0.000
1733122777.722,0.000,-41.992,0.000,-27.832,0.000
1733122777.726,0.000,-39.551,0.000,-34.180,0.000
1733122777.730,0.000,-37.109,0.000,-27.832,0.000
1733122777.734,0.000,-39.551,0.000,-23.926,0.000
1733122777.738,0.000,-40.527,0.000,-29.297,0.000
1733122777.742,-49.805,-42.480,-39.551,-35.645,0.000
1733122777.746,-34.668,-34.180,-45.898,-44.434,0.000
1733122777.750,-30.762,-34.668,-47.852,-41.992,0.000
1733122777.753,-36.621,-40.527,-47.363,-35.645,0.000
1733122777.757,-48.828,-37.109,-47.363,-38.086,0.000
1733122777.761,-48.828,-35.156,-48.828,-42.969,0.000
1733122777.765,-34.180,-31.250,-45.410,-49.316,0.000
1733122777.769,-26.855,-33.203,-47.363,-42.480,0.000
1733122777.773,-29.297,-33.203,-49.805,-35.156,0.000
1733122777.777,-41.504,-31.738,-45.898,-32.227,0.000
1733122777.781,-50.293,-41.504,-49.805,-36.621,0.000
1733122777.785,-40.039,-38.574,-52.246,-47.363,0.000
1733122777.789,-30.762,-35.645,-43.945,-39.551,0.000
1733122777.793,-39.062,-43.945,-45.410,-37.598,0.000
1733122777.796,-46.387,-47.363,-52.246,-35.645,0.000
1733122777.800,-48.340,-45.410,-51.758,-38.574,0.000
1733122777.804,-40.039,-41.016,-48.340,-49.316,0.000
1733122777.808,-24.414,-35.645,-47.363,-49.805,0.000
1733122777.812,-21.484,-36.621,-48.828,-40.039,0.000
1733122777.816,-30.273,-38.574,-48.828,-29.297,0.000
1733122777.820,-44.922,-34.668,-48.340,-40.527,0.000
1733122777.824,-35.156,-35.645,-49.805,-47.852,0.000
1733122777.828,-14.648,-33.691,-46.387,-39.062,0.000
1733122777.831,-16.113,-34.180,-44.434,-32.227,0.000
1733122777.835,-23.926,-41.504,-45.410,-22.461,0.000
1733122777.839,-33.691,-44.434,-38.574,-22.949,0.000
1733122777.843,-25.879,-45.898,-36.133,-30.273,0.000
1733122777.847,-17.090,-39.551,-38.086,-36.133,0.000
1733122777.851,-22.461,-37.598,-39.551,-33.203,0.000
1733122777.855,-34.180,-47.363,-49.316,-21.484,0.000
1733122777.859,-46.875,-50.293,-53.711,-15.625,0.000
1733122777.863,-42.969,-44.434,-49.805,-20.996,0.000
1733122777.867,-33.203,-36.621,-46.387,-34.668,0.000
1733122777.870,-27.832,-40.039,-49.316,-36.621,0.000
1733122777.874,-35.645,-41.992,-51.270,-29.297,0.000
1733122777.878,-47.363,-41.504,-47.363,-28.809,0.000
1733122777.882,-48.340,-36.621,-45.898,-41.992,0.000
1733122777.886,-36.621,-32.715,-47.852,-47.363,0.000
1733122777.890,-27.344,-34.668,-46.387,-36.133,0.000
1733122777.894,-32.227,-34.668,-41.992,-30.273,0.000
1733122777.898,-41.992,-37.598,-42.969,-30.273,0.000
1733122777.902,-40.527,-40.527,-46.387,-37.109,0.000
1733122777.906,-30.273,-36.133,-41.992,-44.922,0.000
1733122777.910,-33.691,-37.598,-42.480,-48.828,0.000
1733122777.913,-41.504,-36.133,-46.387,-40.039,0.000
1733122777.917,-53.223,-42.480,-51.758,-32.227,0.000
1733122777.921,-54.688,-41.016,-48.340,-38.086,0.000
1733122777.925,-36.621,-27.344,-41.504,-40.527,0.000
1733122777.929,-23.926,-30.762,-40.039,-33.203,0.000
1733122777.933,-29.297,-37.109,-36.133,-29.297,0.000
1733122777.937,-41.016,-36.621,-34.668,-20.020,0.000
1733122777.941,-41.504,-34.180,-25.391,-15.137,0.000
1733122777.945,-29.297,-38.574,-29.297,-30.762,0.000
1733122777.949,-29.297,-39.551,-42.480,-45.410,0.000
1733122777.953,-36.133,-41.504,-42.969,-46.875,0.000
1733122777.956,-38.086,-48.828,-41.016,-39.551,0.000
1733122777.960,-49.316,-38.086,-45.410,-45.898,0.000
1733122777.964,-42.969,-35.156,-44.922,-47.852,0.000
1733122777.968,-31.250,-39.062,-41.992,-43.457,0.000
1733122777.972,-30.273,-37.109,-39.062,-43.457,0.000
1733122777.976,-33.203,-41.504,-37.598,-29.297,0.000
1733122777.980,-42.480,-37.109,-41.992,-32.715,0.000
1733122777.984,-36.133,-34.180,-46.875,-46.875,0.000
1733122777.988,-29.297,-38.574,-44.434,-44.922,0.000
1733122777.992,-34.180,-43.945,-39.062,-35.645,0.000
1733122777.996,-43.457,-46.875,-40.527,-23.926,0.000
1733122777.999,-48.828,-45.898,-36.621,-19.043,0.000
1733122778.003,-39.551,-39.062,-32.715,-26.855,0.000
1733122778.007,-21.484,-41.016,-33.691,-24.414,0.000
1733122778.011,-11.719,-37.598,-29.297,-11.719,0.000
1733122778.015,-21.973,-28.809,-27.344,-9.277,0.000
1733122778.019,-38.086,-31.738,-29.297,-16.113,0.000
1733122778.023,-37.109,-34.668,-35.645,-26.367,0.000
1733122778.027,-25.879,-38.574,-42.969,-31.250,0.000
1733122778.031,-21.484,-40.527,-40.039,-26.855,0.000
1733122778.035,-29.297,-40.527,-42.480,-25.879,0.000
1733122778.039,-42.480,-43.457,-44.434,-25.879,0.000
1733122778.042,-38.086,-42.480,-40.039,-24.414,0.000
1733122778.046,-19.043,-41.016,-35.645,-27.344,0.000
1733122778.050,-16.602,-45.410,-31.738,-22.949,0.000
1733122778.054,-19.531,-54.199,-30.762,-2.441,0.000
1733122778.058,-33.203,-54.688,-35.156,-2.441,0.000
1733122778.062,-32.715,-42.480,-33.691,-20.508,0.000
1733122778.066,-8.789,-36.621,-27.832,-23.438,0.000
1733122778.070,-7.324,-35.645,-28.320,-21.484,0.000
1733122778.074,-19.043,-36.621,-31.250,-18.555,0.000
1733122778.078,-36.133,-40.527,-39.062,-17.578,0.000
1733122778.082,-41.016,-42.969,-41.504,-24.414,0.000
1733122778.085,-25.879,-41.016,-37.598,-34.180,0.000
1733122778.089,-20.020,-39.551,-43.457,-40.039,0.000
1733122778.093,-29.297,-40.039,-49.805,-37.598,0.000
1733122778.097,-46.875,-49.805,-46.875,-27.344,0.000
1733122778.101,-50.293,-49.316,-38.574,-24.902,0.000
1733122778.105,-39.551,-37.598,-35.645,-31.738,0.000
1733122778.109,-34.668,-41.016,-38.086,-31.250,0.000
1733122778.113,-37.598,-42.969,-37.598,-35.156,0.000
1733122778.117,-48.340,-42.969,-35.645,-32.227,0.000
1733122778.121,-54.688,-46.387,-37.109,-32.715,0.000
1733122778.124,-40.039,-44.922,-40.527,-38.574,0.000
1733122778.128,-22.949,-41.016,-38.086,-31.738,0.000
1733122778.132,-26.367,-40.039,-38.086,-26.855,0.000
1733122778.136,-35.645,-45.410,-39.062,-20.508,0.000
1733122778.140,-41.016,-40.039,-36.133,-20.508,0.000
1733122778.144,-29.785,-31.738,-37.598,-22.461,0.000
1733122778.148,-18.066,-27.344,-40.039,-18.555,0.000
1733122778.152,-21.973,-17.578,-38.574,-19.531,0.000
1733122778.156,-28.809,-21.973,-38.574,-14.160,0.000
1733122778.159,-41.992,-30.762,-41.504,-18.555,0.000
1733122778.164,-41.992,-30.762,-43.457,-35.645,0.000
1733122778.167,-24.902,-26.855,-41.504,-36.621,0.000
1733122778.171,-20.020,-26.855,-40.527,-27.344,0.000
1733122778.175,-30.273,-29.297,-41.504,-18.555,0.000
1733122778.179,-39.062,-29.785,-43.945,-20.996,0.000
1733122778.183,-26.367,-27.344,-46.875,-34.180,0.000
1733122778.187,-6.836,-26.367,-50.781,-32.227,0.000
1733122778.191,0.000,-23.926,-53.711,-22.461,0.000
1733122778.195,-7.812,-15.625,-49.316,-17.578,0.000
1733122778.199,-21.484,-21.484,-50.293,-20.508,0.000
1733122778.202,-22.949,-22.461,-46.387,-23.438,0.000
1733122778.206,-15.625,-16.602,-38.574,-19.043,0.000
1733122778.210,-24.414,-23.926,-43.457,-22.461,0.000
1733122778.214,-39.551,-32.227,-47.852,-19.043,0.000
1733122778.218,-51.758,-37.109,-47.852,-18.066,0.000
1733122778.222,-47.363,-31.738,-42.969,-29.785,0.000
1733122778.226,-34.668,-21.973,-38.574,-29.785,0.000
1733122778.230,-28.320,-23.438,-47.363,-25.391,0.000
1733122778.234,-24.902,-32.227,-50.781,-18.066,0.000
1733122778.238,-35.156,-30.762,-48.340,-17.090,0.000
1733122778.241,-38.086,-21.484,-48.828,-29.297,0.000
1733122778.245,-23.926,-24.414,-48.340,-32.715,0.000
1733122778.249,-11.719,-31.250,-47.363,-21.484,0.000
1733122778.253,-12.207,-29.785,-45.898,-15.625,0.000
1733122778.257,-21.484,-31.250,-41.016,-11.230,0.000
1733122778.261,-32.715,-32.715,-38.086,-17.578,0.000
1733122778.265,-27.832,-30.273,-38.574,-25.391,0.000
1733122778.269,-23.926,-27.344,-37.598,-26.855,0.000
1733122778.273,-26.367,-27.832,-37.598,-26.855,0.000
1733122778.277,-35.645,-40.039,-39.551,-25.879,0.000
1733122778.281,-46.387,-38.574,-36.621,-35.156,0.000
1733122778.285,-32.227,-23.926,-30.273,-42.480,0.000
1733122778.289,-13.672,-23.438,-30.273,-34.180,0.000
1733122778.292,-20.508,-29.785,-33.203,-18.066,0.000
1733122778.296,-37.109,-34.180,-32.715,-13.672,0.000
1733122778.300,-45.898,-36.133,-30.273,-23.438,0.000
1733122778.304,-37.109,-31.738,-33.203,-30.762,0.000
1733122778.308,-27.344,-29.297,-41.504,-35.156,0.000
1733122778.312,-29.297,-27.344,-40.527,-31.738,0.000
1733122778.316,-33.203,-22.949,-41.016,-22.461,0.000
1733122778.320,-44.434,-26.367,-42.969,-26.367,0.000
1733122778.324,-42.480,-31.738,-39.062,-35.156,0.000
1733122778.328,-29.297,-31.250,-40.527,-33.203,0.000
1733122778.332,-29.785,-33.691,-49.805,-37.109,0.000
1733122778.335,-35.645,-38.086,-50.293,-36.621,0.000
1733122778.339,-42.969,-40.039,-44.434,-28.320,0.000
1733122778.343,-37.109,-32.227,-42.969,-29.785,0.000
1733122778.347,-23.438,-27.832,-47.852,-37.598,0.000
1733122778.351,-20.508,-34.180,-50.781,-36.133,0.000
1733122778.355,-22.949,-39.551,-49.316,-22.461,0.000
1733122778.359,-34.668,-32.227,-44.922,-24.414,0.000
1733122778.363,-32.227,-20.020,-45.898,-41.016,0.000
1733122778.367,-18.066,-20.020,-47.852,-42.969,0.000
1733122778.371,-19.043,-21.973,-48.340,-43.945,0.000
1733122778.375,-28.809,-25.391,-47.852,-43.945,0.000
1733122778.378,-52.246,-35.645,-45.898,-43.945,0.000
1733122778.382,-49.805,-38.574,-45.898,-40.039,0.000
1733122778.386,-23.438,-32.715,-43.945,-34.180,0.000
1733122778.390,-19.531,-28.809,-40.527,-38.086,0.000
1733122778.394,-27.832,-35.645,-41.504,-33.203,0.000
1733122778.398,-40.039,-41.504,-42.969,-22.949,0.000
1733122778.402,-42.480,-37.109,-45.410,-26.855,0.000
1733122778.406,-31.250,-32.227,-41.992,-31.738,0.000
1733122778.410,-23.438,-35.645,-39.062,-22.461,0.000
1733122778.414,-25.391,-41.992,-37.598,-15.625,0.000
1733122778.418,-32.715,-42.969,-33.691,-16.602,0.000
1733122778.421,-32.227,-39.551,-30.762,-21.484,0.000
1733122778.425,-19.531,-34.180,-29.297,-30.762,0.000
1733122778.429,-11.719,-41.504,-29.785,-23.926,0.000
1733122778.433,-20.508,-45.898,-35.645,-16.113,0.000
1733122778.437,-41.992,-43.457,-39.062,-21.484,0.000
1733122778.441,-50.781,-44.434,-39.062,-26.367,0.000
1733122778.445,-40.527,-39.551,-40.039,-30.762,0.000
1733122778.449,-33.691,-41.016,-45.410,-37.598,0.000
1733122778.453,-35.645,-41.504,-45.898,-37.109,0.000
1733122778.457,-44.922,-41.504,-45.410,-28.809,0.000
1733122778.461,-55.664,-41.504,-44.434,-34.180,0.000
1733122778.464,-47.363,-43.945,-46.387,-46.387,0.000
1733122778.468,-38.086,-42.969,-42.480,-50.781,0.000
1733122778.472,-37.598,-40.527,-37.598,-41.992,0.000
1733122778.476,-52.246,-42.480,-41.016,-34.180,0.000
1733122778.480,-64.941,-35.645,-38.574,-39.062,0.000
1733122778.484,-48.340,-30.762,-39.551,-48.828,0.000
1733122778.488,-30.273,-29.297,-41.992,-47.363,0.000
1733122778.492,-31.250,-29.785,-40.527,-35.645,0.000
1733122778.496,-38.086,-35.156,-39.062,-29.785,0.000
1733122778.500,-49.805,-39.551,-42.969,-36.133,0.000
1733122778.503,-42.480,-34.180,-44.434,-47.363,0.000
1733122778.507,-26.855,-26.855,-41.992,-41.504,0.000
1733122778.511,-23.926,-31.738,-42.480,-31.250,0.000
1733122778.515,-35.156,-38.574,-43.945,-26.367,0.000
1733122778.519,-48.340,-45.410,-43.945,-23.438,0.000
1733122778.523,-40.039,-41.016,-43.457,-29.785,0.000
1733122778.527,-26.367,-31.250,-46.387,-37.109,0.000
1733122778.531,-21.973,-32.227,-42.969,-34.180,0.000
1733122778.535,-25.879,-35.645,-52.246,-33.691,0.000
1733122778.539,-41.016,-38.574,-58.594,-39.062,0.000
1733122778.543,-39.551,-35.645,-52.246,-38.574,0.000
1733122778.547,-20.508,-30.273,-48.828,-31.250,0.000
1733122778.550,-9.277,-27.344,-49.316,-23.438,0.000
1733122778.554,-14.160,-31.738,-51.758,-19.531,0.000
1733122778.558,-29.785,-37.598,-49.805,-20.020,0.000
1733122778.562,-30.762,-39.062,-51.758,-26.367,0.000
1733122778.566,-19.531,-32.227,-48.828,-30.273,0.000
1733122778.570,-15.625,-24.902,-41.992,-24.414,0.000
1733122778.574,-20.508,-27.344,-39.551,-20.996,0.000
1733122778.578,-36.621,-32.227,-41.992,-22.461,0.000
1733122778.582,-39.062,-28.320,-42.969,-29.785,0.000
1733122778.586,-23.438,-20.508,-34.668,-36.133,0.000
1733122778.589,-15.625,-22.461,-34.180,-25.879,0.000
1733122778.593,-20.020,-28.809,-38.574,-17.578,0.000
1733122778.597,-38.086,-38.086,-41.016,-21.973,0.000
1733122778.601,-41.992,-41.016,-41.992,-24.902,0.000
1733122778.605,-18.555,-33.203,-41.016,-26.855,0.000
1733122778.609,-7.324,-23.926,-41.504,-34.668,0.000
1733122778.613,-9.277,-22.949,-41.992,-36.621,0.000
1733122778.617,-19.531,-29.785,-41.992,-28.809,0.000
1733122778.621,-33.691,-33.691,-41.016,-34.668,0.000
1733122778.624,-21.973,-32.715,-39.062,-30.273,0.000
1733122778.628,-14.160,-27.344,-38.086,-30.273,0.000
1733122778.632,-14.648,-20.508,-39.551,-38.086,0.000
1733122778.636,-22.461,-29.297,-44.434,-33.203,0.000
1733122778.640,-33.691,-28.320,-46.875,-36.621,0.000
1733122778.644,-29.785,-22.461,-42.480,-43.945,0.000
1733122778.648,-20.508,-25.879,-41.016,-39.062,0.000
1733122778.652,-17.090,-30.762,-39.551,-34.180,0.000
1733122778.656,-25.391,-31.250,-39.551,-29.785,0.000
1733122778.660,-36.621,-25.391,-38.086,-32.227,0.000
1733122778.664,-22.461,-24.902,-35.156,-37.109,0.000
1733122778.667,-7.812,-30.762,-35.156,-37.598,0.000
1733122778.671,-11.230,-25.879,-36.621,-31.250,0.000
1733122778.675,-17.578,-23.438,-43.945,-25.879,0.000
1733122778.679,-31.738,-30.762,-49.316,-26.367,0.000
1733122778.683,-35.156,-31.250,-45.410,-38.086,0.000
1733122778.687,-21.484,-26.367,-41.016,-30.762,0.000
1733122778.691,-17.090,-26.855,-42.480,-17.578,0.000
1733122778.695,-25.879,-33.691,-42.969,-18.555,0.000
1733122778.699,-44.434,-39.551,-42.969,-11.230,0.000
1733122778.703,-44.922,-33.691,-41.504,-12.695,0.000
1733122778.707,-26.855,-26.367,-37.109,-27.832,0.000
1733122778.710,-23.926,-29.297,-37.109,-28.320,0.000
1733122778.714,-32.715,-32.715,-40.527,-13.672,0.000
1733122778.718,-45.898,-34.180,-42.480,-18.066,0.000
1733122778.722,-44.922,-32.715,-41.992,-34.180,0.000
1733122778.726,-28.809,-31.738,-33.691,-40.527,0.000
1733122778.730,-20.996,-34.180,-33.203,-38.086,0.000
1733122778.734,-19.043,-35.645,-38.574,-32.715,0.000
1733122778.738,-22.949,-31.738,-42.480,-34.668,0.000
1733122778.742,-15.625,-33.203,-41.992,-41.016,0.000
1733122778.746,1.953,-32.715,-36.621,-42.969,0.000
1733122778.750,0.977,-27.832,-35.156,-36.621,0.000
1733122778.753,-4.883,-23.438,-31.250,-27.832,0.000
1733122778.757,-30.762,-30.273,-30.273,-25.879,0.000
1733122778.761,-57.129,-33.203,-32.227,-27.832,0.000
1733122778.765,-53.711,-29.785,-34.180,-39.062,0.000
1733122778.769,-48.828,-40.527,-41.504,-41.992,0.000
1733122778.773,-47.852,-42.969,-38.574,-32.715,0.000
1733122778.777,-53.711,-40.527,-35.156,-29.785,0.000
1733122778.781,-57.129,-37.598,-41.016,-35.645,0.000
1733122778.785,-44.922,-36.621,-40.527,-36.621,0.000
1733122778.789,-40.527,-36.133,-37.109,-35.156,0.000
1733122778.793,-36.621,-33.691,-40.527,-34.668,0.000
1733122778.796,-37.109,-37.598,-46.875,-29.785,0.000
1733122778.800,-54.199,-41.992,-37.109,-31.738,0.000
1733122778.804,-54.199,-45.410,-32.227,-31.250,0.000
1733122778.808,-35.645,-33.691,-34.180,-26.367,0.000
1733122778.812,-27.344,-23.926,-31.738,-29.297,0.000
1733122778.816,-35.156,-33.691,-37.598,-23.438,0.000
1733122778.820,-52.246,-43.945,-41.992,-28.809,0.000
1733122778.824,-41.016,-41.016,-38.086,-32.227,0.000
1733122778.828,-24.902,-35.645,-40.039,-30.273,0.000
1733122778.832,-19.043,-32.227,-38.574,-24.414,0.000
1733122778.836,-28.320,-36.621,-38.574,-17.578,0.000
1733122778.839,-46.875,-40.527,-39.062,-22.461,0.000
1733122778.843,-39.062,-37.109,-39.551,-31.738,0.000
1733122778.847,-18.066,-38.574,-43.457,-29.297,0.000
1733122778.851,-16.113,-38.574,-41.992,-21.973,0.000
1733122778.855,-24.414,-36.621,-41.504,-24.414,0.000
1733122778.859,-36.133,-44.434,-43.457,-26.367,0.000
1733122778.863,-36.133,-44.434,-40.527,-33.691,0.000
1733122778.867,-22.461,-35.156,-37.598,-35.156,0.000
1733122778.871,-20.020,-34.668,-40.527,-28.809,0.000
1733122778.875,-26.367,-39.551,-46.875,-24.902,0.000
1733122778.878,-37.109,-38.086,-46.387,-27.344,0.000
1733122778.882,-41.016,-36.621,-42.480,-37.109,0.000
1733122778.886,-23.926,-36.133,-41.504,-41.504,0.000
1733122778.890,-16.113,-31.738,-41.016,-34.668,0.000
1733122778.894,-25.879,-40.527,-38.086,-26.855,0.000
1733122778.898,-41.992,-42.480,-38.574,-28.809,0.000
1733122778.902,-48.828,-32.715,-38.574,-40.527,0.000
1733122778.906,-27.344,-29.785,-36.621,-42.480,0.000
1733122778.910,-17.578,-28.320,-40.039,-36.133,0.000
1733122778.914,-23.926,-31.738,-41.016,-30.273,0.000
1733122778.918,-33.691,-41.504,-38.086,-30.273,0.000
1733122778.921,-41.504,-45.410,-40.039,-41.016,0.000
1733122778.925,-23.926,-36.621,-39.062,-40.039,0.000
1733122778.929,-9.277,-31.738,-37.109,-29.297,0.000
1733122778.933,-16.602,-37.109,-43.945,-32.715,0.000
1733122778.937,-38.574,-49.805,-55.176,-37.598,0.000
1733122778.941,-51.270,-48.828,-59.082,-34.180,0.000
1733122778.945,-35.645,-30.762,-54.688,-38.574,0.000
1733122778.949,-21.484,-26.367,-49.316,-36.621,0.000
1733122778.953,-26.855,-31.738,-46.875,-35.645,0.000
1733122778.956,-36.621,-37.598,-47.852,-37.109,0.000
1733122778.960,-48.340,-43.457,-49.805,-41.016,0.000
1733122778.964,-40.039,-42.969,-43.457,-38.574,0.000
1733122778.968,-26.855,-40.039,-43.457,-41.504,0.000
1733122778.972,-27.832,-42.480,-44.922,-44.434,0.000
1733122778.976,-40.527,-50.781,-45.410,-34.180,0.000
1733122778.980,-58.105,-51.270,-42.480,-36.621,0.000
1733122778.984,-44.434,-46.387,-41.992,-42.480,0.000
1733122778.988,-18.066,-35.645,-52.246,-25.879,0.000
1733122778.992,-15.625,-31.250,-41.992,-10.254,0.000
1733122778.995,-39.551,-46.875,-29.785,-17.090,0.000
1733122778.999,-65.918,-55.176,-31.738,-32.715,0.000
1733122779.003,-63.477,-46.875,-26.367,-42.480,0.000
1733122779.007,-31.738,-37.109,-20.020,-25.879,0.000
1733122779.011,-32.227,-43.457,-17.578,-17.090,0.000
1733122779.015,-51.270,-49.316,-16.113,-23.438,0.000
1733122779.019,-67.383,-52.246,-13.184,-20.508,0.000
1733122779.023,-62.988,-54.199,-13.184,-21.973,0.000
1733122779.027,-31.738,-51.270,-12.207,-17.578,0.000
1733122779.031,-34.668,-50.293,-7.324,-23.438,0.000
1733122779.035,-45.410,-50.293,-10.742,-34.668,0.000
1733122779.038,-62.988,-56.641,-16.602,-39.551,0.000
1733122779.042,-63.965,-61.523,-13.184,-33.203,0.000
1733122779.046,-47.363,-58.594,-7.812,-28.320,0.000
1733122779.050,-49.805,-55.176,-3.418,-33.203,0.000
1733122779.054,-47.852,-58.105,5.371,-22.461,0.000
1733122779.058,-66.895,-61.523,8.789,-24.902,0.000
1733122779.062,-65.430,-60.547,3.906,-25.391,0.000
1733122779.066,-43.945,-58.594,7.812,-19.043,0.000
1733122779.070,-34.180,-59.082,0.977,-17.090,0.000
1733122779.074,-32.227,-60.547,-7.324,-17.578,0.000
1733122779.078,-53.711,-59.082,-7.812,-24.414,0.000
1733122779.081,-56.641,-60.547,-13.672,-29.297,0.000
1733122779.085,-42.480,-60.547,-15.625,-34.180,0.000
1733122779.089,-26.855,-61.523,-18.555,-16.113,0.000
1733122779.093,-23.926,-58.594,-15.625,-6.836,0.000
1733122779.097,-38.086,-51.758,-13.672,-11.719,0.000
1733122779.101,-56.641,-59.570,-24.902,-16.602,0.000
1733122779.105,-44.434,-56.641,-23.926,-23.926,0.000
1733122779.109,-22.461,-47.363,-18.066,-20.020,0.000
1733122779.113,-26.855,-50.293,-27.832,-19.531,0.000
1733122779.117,-40.039,-55.176,-34.180,-13.672,0.000
1733122779.121,-43.945,-53.223,-32.715,-16.113,0.000
1733122779.124,-29.785,-47.363,-31.250,-24.414,0.000
1733122779.128,-10.254,-44.434,-23.926,-22.461,0.000
1733122779.132,-9.766,-49.316,-29.297,-14.160,0.000
1733122779.136,-33.203,-56.152,-37.109,-10.254,0.000
1733122779.140,-47.363,-53.711,-33.691,-18.555,0.000
1733122779.144,-34.668,-51.270,-35.156,-28.320,0.000
1733122779.148,-24.414,-54.199,-41.016,-24.902,0.000
1733122779.152,-22.949,-51.758,-39.062,-20.508,0.000
1733122779.156,-33.203,-46.875,-36.133,-21.484,0.000
1733122779.160,-47.852,-48.340,-38.086,-24.902,0.000
1733122779.164,-42.969,-48.828,-32.227,-26.855,0.000
1733122779.167,-23.926,-44.922,-30.273,-26.367,0.000
1733122779.171,-17.090,-41.504,-42.480,-27.832,0.000
1733122779.175,-21.973,-39.551,-43.945,-20.996,0.000
1733122779.179,-38.574,-51.270,-37.598,-14.160,0.000
1733122779.183,-48.828,-53.711,-30.762,-26.855,0.000
1733122779.187,-35.156,-37.598,-27.344,-35.645,0.000
1733122779.191,-25.391,-39.062,-26.855,-22.949,0.000
1733122779.195,-38.086,-46.387,-27.344,-17.090,0.000
1733122779.199,-50.781,-43.457,-32.715,-22.461,0.000
1733122779.203,-53.223,-47.363,-34.668,-33.691,0.000
1733122779.207,-39.062,-48.828,-34.668,-30.273,0.000
1733122779.210,-30.273,-46.387,-32.715,-23.926,0.000
1733122779.214,-41.016,-48.828,-35.156,-28.809,0.000
1733122779.218,-60.059,-51.758,-41.504,-35.156,0.000
1733122779.222,-62.012,-56.152,-42.969,-39.062,0.000
1733122779.226,-40.039,-45.410,-40.039,-34.180,0.000
1733122779.230,-30.762,-32.715,-38.086,-29.297,0.000
1733122779.234,-34.668,-37.109,-40.039,-23.926,0.000
1733122779.238,-43.457,-36.621,-38.574,-20.508,0.000
1733122779.242,-47.852,-32.227,-36.621,-26.367,0.000
1733122779.246,-34.180,-33.691,-37.598,-28.320,0.000
1733122779.249,-23.926,-36.621,-35.645,-21.973,0.000
1733122779.253,-27.832,-37.598,-39.062,-15.625,0.000
1733122779.257,-42.969,-37.109,-43.945,-14.160,0.000
1733122779.261,-54.688,-36.621,-41.016,-21.973,0.000
1733122779.265,-40.527,-36.621,-37.109,-32.227,0.000
1733122779.269,-22.461,-40.039,-40.039,-26.367,0.000
1733122779.273,-22.949,-38.574,-41.016,-21.484,0.000
1733122779.277,-33.203,-37.109,-41.504,-32.227,0.000
1733122779.281,-35.645,-41.992,-47.363,-42.969,0.000
1733122779.285,-13.184,-35.156,-46.387,-46.387,0.000
1733122779.289,7.812,-27.344,-42.480,-29.297,0.000
1733122779.292,-1.953,-29.785,-44.434,-21.484,0.000
1733122779.296,-19.531,-41.016,-49.316,-23.926,0.000
1733122779.300,-35.156,-38.086,-48.828,-17.090,0.000
1733122779.304,-34.668,-34.668,-47.852,-19.043,0.000
1733122779.308,-24.902,-35.645,-43.457,-18.555,0.000
1733122779.312,-22.461,-34.180,-41.992,-6.836,0.000
1733122779.316,-35.645,-36.621,-43.457,0.977,0.000
1733122779.320,-54.688,-31.250,-40.527,-13.672,0.000
1733122779.324,-53.223,-32.715,-38.574,-31.250,0.000
1733122779.327,-30.273,-36.133,-35.156,-23.926,0.000
1733122779.331,-19.531,-35.156,-34.180,-13.184,0.000
1733122779.335,-24.414,-28.809,-41.504,-8.301,0.000
1733122779.339,-46.387,-28.809,-46.387,-18.555,0.000
1733122779.343,-50.781,-30.762,-46.387,-32.715,0.000
1733122779.347,-24.414,-21.484,-49.805,-30.762,0.000
1733122779.351,-19.043,-19.043,-53.223,-26.367,0.000
1733122779.355,-24.414,-24.902,-54.199,-25.391,0.000
1733122779.359,-32.715,-32.715,-56.641,-19.531,0.000
1733122779.363,-31.738,-27.344,-57.129,-23.926,0.000
1733122779.367,-16.113,-18.555,-52.246,-30.762,0.000
1733122779.370,-9.766,-26.855,-50.781,-20.996,0.000
1733122779.374,-23.438,-38.086,-56.641,-19.531,0.000
1733122779.378,-43.945,-37.598,-55.176,-26.855,0.000
1733122779.382,-42.969,-34.668,-49.316,-34.668,0.000
1733122779.386,-25.391,-39.062,-43.457,-42.480,0.000
1733122779.390,-16.602,-35.645,-41.504,-36.621,0.000
1733122779.394,-16.113,-30.762,-45.410,-28.320,0.000
1733122779.398,-33.691,-33.691,-54.199,-27.344,0.000
1733122779.402,-45.410,-39.551,-62.500,-26.855,0.000
1733122779.406,-28.809,-37.598,-57.617,-28.809,0.000
1733122779.409,-13.184,-29.297,-51.758,-33.691,0.000
1733122779.413,-11.230,-32.715,-48.340,-23.926,0.000
1733122779.417,-24.414,-39.062,-48.828,-17.578,0.000
1733122779.421,-34.180,-38.086,-52.246,-25.391,0.000
1733122779.425,-17.090,-34.180,-50.781,-24.902,0.000
1733122779.429,-4.883,-31.250,-50.781,-20.996,0.000
1733122779.433,-7.812,-27.832,-50.781,-11.230,0.000
1733122779.437,-21.484,-26.367,-53.223,-7.324,0.000
1733122779.441,-40.039,-31.250,-58.105,-26.855,0.000
1733122779.445,-25.879,-31.738,-59.082,-28.320,0.000
1733122779.449,-11.719,-31.250,-59.082,-21.484,0.000
1733122779.452,-16.602,-31.250,-55.176,-25.391,0.000
1733122779.456,-31.738,-35.156,-54.199,-29.297,0.000
1733122779.460,-42.969,-40.039,-52.734,-38.574,0.000
1733122779.464,-23.926,-37.109,-49.805,-36.621,0.000
1733122779.468,-8.301,-32.715,-49.316,-31.250,0.000
1733122779.472,-10.254,-30.273,-46.875,-27.832,0.000
1733122779.476,-19.531,-35.156,-46.387,-25.391,0.000
1733122779.480,-37.109,-35.645,-47.852,-31.738,0.000
1733122779.484,-29.297,-33.203,-48.828,-30.273,0.000
1733122779.488,-10.254,-31.250,-44.922,-36.133,0.000
1733122779.492,-8.789,-34.180,-41.016,-36.621,0.000
1733122779.495,-24.414,-39.551,-41.016,-34.180,0.000
1733122779.499,-47.363,-40.039,-40.527,-40.039,0.000
1733122779.503,-42.480,-41.992,-40.527,-41.016,0.000
1733122779.507,-20.020,-45.410,-41.504,-33.691,0.000
1733122779.511,-20.508,-45.898,-41.016,-26.855,0.000
1733122779.515,-37.598,-43.457,-36.133,-28.320,0.000
1733122779.519,-55.664,-50.293,-39.062,-28.320,0.000
1733122779.523,-51.758,-49.316,-38.086,-26.367,0.000
1733122779.527,-28.320,-38.574,-36.133,-24.902,0.000
1733122779.531,-21.484,-33.203,-41.016,-19.043,0.000
1733122779.535,-22.949,-30.762,-40.527,-9.277,0.000
1733122779.538,-39.062,-35.156,-41.016,-11.719,0.000
1733122779.542,-45.898,-32.227,-42.969,-15.137,0.000
1733122779.546,-24.414,-23.926,-41.504,-16.113,0.000
1733122779.550,-11.719,-25.391,-36.621,-18.555,0.000
1733122779.554,-20.996,-40.527,-40.039,-11.719,0.000
1733122779.558,-41.992,-44.434,-48.340,-13.184,0.000
1733122779.562,-42.969,-31.250,-43.945,-23.926,0.000
1733122779.566,-20.020,-27.832,-35.645,-22.461,0.000
1733122779.570,-7.324,-32.227,-37.109,-20.020,0.000
1733122779.574,-13.672,-35.156,-38.086,-18.555,0.000
1733122779.578,-29.785,-38.574,-38.086,-21.484,0.000
1733122779.581,-39.551,-40.527,-36.133,-30.273,0.000
1733122779.585,-29.785,-34.180,-33.203,-33.203,0.000
1733122779.589,-18.555,-37.598,-36.133,-31.738,0.000
1733122779.593,-23.926,-42.969,-37.109,-27.832,0.000
1733122779.597,-35.156,-46.387,-34.668,-17.578,0.000
1733122779.601,-44.922,-48.340,-35.645,-21.484,0.000
1733122779.605,-34.668,-37.109,-34.668,-32.227,0.000
1733122779.609,-16.602,-31.250,-31.250,-26.367,0.000
1733122779.613,-18.066,-33.691,-35.645,-21.973,0.000
1733122779.617,-32.227,-34.668,-34.180,-23.438,0.000
1733122779.620,-43.945,-38.574,-30.273,-24.414,0.000
1733122779.624,-31.250,-38.574,-26.367,-15.625,0.000
1733122779.628,-8.789,-32.227,-26.855,-10.742,0.000
1733122779.632,-5.371,-29.297,-30.762,-16.602,0.000
1733122779.636,-20.508,-29.785,-39.062,-14.648,0.000
1733122779.640,-38.086,-34.180,-42.480,-22.949,0.000
1733122779.644,-27.344,-37.598,-34.668,-30.762,0.000
1733122779.648,-12.207,-31.250,-32.715,-27.344,0.000
1733122779.652,-18.555,-27.344,-35.645,-35.645,0.000
1733122779.656,-34.668,-35.156,-37.109,-40.039,0.000
1733122779.659,-50.293,-34.668,-39.551,-44.434,0.000
1733122779.663,-42.480,-26.367,-41.016,-47.363,0.000
1733122779.667,-27.832,-27.344,-42.969,-41.016,0.000
1733122779.671,-30.273,-30.273,-39.551,-34.180,0.000
1733122779.675,-39.062,-28.320,-37.598,-32.715,0.000
1733122779.679,-52.734,-39.062,-38.574,-39.062,0.000
1733122779.683,-52.734,-46.875,-36.621,-44.434,0.000
1733122779.687,-34.180,-44.434,-36.133,-35.645,0.000
1733122779.691,-24.902,-38.574,-33.691,-25.879,0.000
1733122779.695,-36.133,-33.691,-36.133,-29.785,0.000
1733122779.698,-51.270,-42.969,-37.598,-32.715,0.000
1733122779.702,-59.570,-42.969,-34.668,-40.527,0.000
1733122779.706,-42.969,-37.109,-38.574,-41.504,0.000
1733122779.710,-6.348,-36.621,-37.598,-19.043,0.000
1733122779.714,-8.301,-30.273,-34.668,-14.648,0.000
1733122779.718,-56.152,-31.250,-38.574,-46.387,0.000
1733122779.722,-73.730,-30.273,-37.598,-59.570,0.000
1733122779.726,-52.734,-27.832,-35.645,-54.688,0.000
1733122779.730,-52.734,-30.273,-37.109,-63.965,0.000
1733122779.734,-72.266,-31.250,-38.086,-71.777,0.000
1733122779.738,-91.797,-28.809,-35.645,-74.707,0.000
1733122779.741,-97.168,-17.578,-35.645,-87.891,0.000
1733122779.745,-89.355,-20.508,-34.668,-97.656,0.000
1733122779.749,-94.727,-26.367,-32.227,-100.586,0.000
1733122779.753,-104.004,-21.973,-34.180,-103.027,0.000
1733122779.757,-115.723,-23.926,-30.273,-108.398,0.000
1733122779.761,-123.047,-26.367,-20.996,-110.352,0.000
1733122779.765,-119.141,-19.531,-25.391,-119.629,0.000
1733122779.769,-107.422,-15.625,-26.855,-124.023,0.000
1733122779.773,-109.375,-22.461,-25.879,-124.023,0.000
1733122779.777,-127.441,-31.250,-29.785,-121.582,0.000
1733122779.780,-143.555,-33.691,-23.926,-118.164,0.000
1733122779.784,-134.766,-24.902,-17.090,-126.465,0.000
1733122779.788,-112.793,-20.508,-17.578,-119.141,0.000
1733122779.792,-105.957,-28.320,-17.578,-101.074,0.000
1733122779.796,-124.512,-30.762,-19.043,-102.539,0.000
1733122779.800,-141.113,-29.785,-25.391,-111.328,0.000
1733122779.804,-122.070,-28.320,-23.438,-111.328,0.000
1733122779.808,-89.355,-23.926,-21.973,-108.398,0.000
1733122779.812,-80.566,-23.438,-27.344,-113.281,0.000
1733122779.816,-85.449,-30.273,-26.367,-105.469,0.000
1733122779.820,-98.145,-31.250,-22.949,-92.773,0.000
1733122779.823,-91.797,-31.250,-23.926,-84.473,0.000
1733122779.827,-71.777,-32.715,-22.949,-88.379,0.000
1733122779.831,-69.824,-24.902,-21.484,-96.191,0.000
1733122779.835,-83.496,-24.902,-19.531,-85.449,0.000
1733122779.839,-99.609,-28.809,-22.461,-71.777,0.000
1733122779.843,-110.352,-28.809,-23.926,-82.031,0.000
1733122779.847,-110.840,-29.297,-23.438,-106.934,0.000
1733122779.851,-93.262,-36.621,-27.344,-103.027,0.000
1733122779.855,-94.727,-41.016,-31.738,-94.238,0.000
1733122779.859,-118.164,-33.203,-31.738,-99.121,0.000
1733122779.863,-121.582,-22.461,-28.809,-103.516,0.000
1733122779.867,-106.445,-20.996,-32.227,-102.051,0.000
1733122779.870,-98.145,-20.508,-35.645,-99.609,0.000
1733122779.874,-104.492,-22.461,-37.109,-93.262,0.000
1733122779.878,-125.977,-27.344,-35.645,-92.285,0.000
1733122779.882,-134.766,-29.785,-33.691,-102.051,0.000
1733122779.886,-113.770,-33.203,-29.297,-95.703,0.000
1733122779.890,-88.867,-31.250,-27.344,-85.938,0.000
1733122779.894,-87.402,-24.414,-31.738,-94.238,0.000
1733122779.898,-108.887,-21.484,-33.203,-104.492,0.000
1733122779.902,-113.281,-25.391,-36.133,-104.980,0.000
1733122779.906,-82.031,-23.438,-41.992,-97.168,0.000
1733122779.910,-71.777,-26.855,-41.992,-95.215,0.000
1733122779.913,-72.754,-31.250,-43.457,-92.773,0.000
1733122779.917,-77.637,-29.785,-48.828,-79.590,0.000
1733122779.921,-92.773,-31.250,-47.363,-82.520,0.000
1733122779.925,-76.660,-27.344,-48.340,-88.379,0.000
1733122779.929,-53.711,-23.438,-51.758,-78.125,0.000
1733122779.933,-56.641,-24.902,-45.898,-76.172,0.000
1733122779.937,-78.613,-32.715,-47.852,-83.008,0.000
1733122779.941,-91.797,-34.668,-53.223,-86.914,0.000
1733122779.945,-81.543,-31.738,-46.875,-83.984,0.000
1733122779.949,-78.613,-22.949,-41.016,-86.914,0.000
1733122779.953,-75.195,-14.160,-40.527,-95.215,0.000
1733122779.956,-89.355,-25.879,-38.574,-96.191,0.000
1733122779.960,-112.793,-31.250,-37.598,-105.469,0.000
1733122779.964,-101.562,-24.414,-38.574,-102.539,0.000
1733122779.968,-80.078,-17.090,-31.250,-91.309,0.000
1733122779.972,-66.895,-24.414,-31.250,-80.078,0.000
1733122779.976,-69.824,-34.668,-44.434,-65.918,0.000
1733122779.980,-93.750,-28.809,-41.504,-79.590,0.000
1733122779.984,-83.984,-30.273,-34.668,-86.426,0.000
1733122779.988,-54.199,-29.785,-36.133,-72.754,0.000
1733122779.992,-60.547,-28.809,-34.180,-75.195,0.000
1733122779.996,-77.148,-34.180,-35.156,-80.078,0.000
1733122779.999,-80.566,-39.551,-39.551,-70.312,0.000
1733122780.003,-64.941,-33.691,-36.621,-61.035,0.000
1733122780.007,-50.781,-26.367,-32.227,-64.941,0.000
1733122780.011,-53.711,-30.762,-39.551,-73.242,0.000
1733122780.015,-57.129,-31.738,-40.039,-68.848,0.000
1733122780.019,-76.660,-39.062,-35.645,-62.988,0.000
1733122780.023,-84.473,-36.621,-32.227,-71.777,0.000
1733122780.027,-70.312,-27.832,-31.738,-80.566,0.000
1733122780.031,-59.570,-35.156,-30.273,-66.895,0.000
1733122780.034,-60.547,-38.086,-27.344,-57.617,0.000
1733122780.038,-83.496,-34.668,-35.645,-66.406,0.000
1733122780.042,-95.215,-33.203,-32.715,-80.566,0.000
1733122780.046,-78.125,-36.133,-26.855,-83.008,0.000
1733122780.050,-78.613,-35.645,-26.855,-77.148,0.000
1733122780.054,-84.473,-35.645,-24.902,-80.078,0.000
1733122780.058,-87.402,-42.480,-25.879,-71.289,0.000
1733122780.062,-87.891,-42.969,-28.809,-62.500,0.000
1733122780.066,-67.383,-33.691,-27.832,-60.059,0.000
1733122780.070,-49.805,-25.391,-28.809,-58.105,0.000
1733122780.073,-44.434,-25.391,-31.738,-50.293,0.000
1733122780.077,-52.734,-32.227,-32.715,-41.504,0.000
1733122780.081,-52.734,-30.762,-36.133,-42.480,0.000
1733122780.085,-33.203,-21.973,-32.715,-50.781,0.000
1733122780.089,-27.832,-20.996,-27.832,-50.781,0.000
1733122780.093,-39.551,-28.320,-39.062,-55.176,0.000
1733122780.097,-57.129,-38.086,-53.223,-59.570,0.000
1733122780.101,-73.242,-45.898,-52.734,-62.500,0.000
1733122780.105,-67.383,-44.434,-46.387,-72.754,0.000
1733122780.109,-57.617,-46.387,-43.945,-68.848,0.000
1733122780.113,-54.199,-45.410,-47.363,-60.059,0.000
1733122780.116,-62.500,-36.621,-50.293,-62.012,0.000
1733122780.120,-83.496,-41.992,-49.805,-73.242,0.000
1733122780.124,-75.195,-43.945,-51.758,-74.219,0.000
1733122780.128,-54.199,-40.039,-53.711,-73.730,0.000
1733122780.132,-51.758,-38.574,-48.340,-71.289,0.000
1733122780.136,-64.453,-43.457,-46.387,-63.965,0.000
1733122780.140,-87.402,-48.828,-46.387,-75.684,0.000
1733122780.144,-81.055,-40.527,-42.480,-83.008,0.000
1733122780.148,-54.199,-37.109,-42.969,-62.988,0.000
1733122780.152,-47.852,-41.992,-42.480,-49.316,0.000
1733122780.155,-58.594,-45.898,-41.992,-45.898,0.000
1733122780.159,-74.707,-43.945,-41.992,-44.434,0.000
1733122780.163,-61.523,-32.715,-38.574,-41.016,0.000
1733122780.167,-32.715,-27.344,-41.504,-27.832,0.000
1733122780.171,-31.738,-27.832,-42.969,-21.973,0.000
1733122780.175,-44.434,-26.367,-35.156,-31.738,0.000
1733122780.179,-53.223,-28.320,-37.109,-30.762,0.000
1733122780.183,-50.781,-25.391,-42.969,-32.227,0.000
1733122780.187,-29.297,-22.461,-43.457,-32.715,0.000
1733122780.191,-16.602,-20.508,-41.992,-25.391,0.000
1733122780.195,-29.297,-20.508,-41.504,-26.855,0.000
1733122780.198,-54.688,-25.391,-38.574,-34.668,0.000
1733122780.202,-65.430,-26.855,-34.180,-47.363,0.000
1733122780.206,-45.410,-24.902,-32.227,-47.363,0.000
1733122780.210,-31.738,-25.879,-34.668,-43.945,0.000
1733122780.214,-41.992,-32.715,-39.062,-43.457,0.000
1733122780.218,-62.012,-34.668,-39.062,-47.852,0.000
1733122780.222,-61.035,-25.391,-41.992,-62.012,0.000
1733122780.226,-40.039,-24.414,-43.457,-67.383,0.000
1733122780.230,-34.180,-32.227,-38.574,-62.988,0.000
1733122780.234,-42.480,-34.668,-42.969,-59.570,0.000
1733122780.238,-57.617,-35.645,-50.293,-57.129,0.000
1733122780.241,-66.406,-38.086,-52.734,-50.781,0.000
1733122780.245,-42.480,-36.621,-52.246,-44.434,0.000
1733122780.249,-20.996,-36.621,-51.270,-35.645,0.000
1733122780.253,-22.949,-33.691,-51.758,-28.809,0.000
1733122780.257,-35.156,-35.156,-50.781,-25.391,0.000
1733122780.261,-45.898,-39.062,-46.875,-28.320,0.000
1733122780.265,-33.691,-31.738,-44.922,-37.109,0.000
1733122780.269,-8.789,-27.344,-43.945,-33.691,0.000
1733122780.273,-14.160,-34.668,-42.480,-26.367,0.000
1733122780.277,-44.434,-41.992,-41.992,-39.551,0.000
1733122780.281,-55.664,-39.062,-48.828,-45.410,0.000
1733122780.284,-38.574,-40.527,-48.340,-35.156,0.000
1733122780.288,-26.367,-41.016,-42.969,-32.227,0.000
1733122780.292,-30.762,-42.480,-44.434,-35.645,0.000
1733122780.296,-44.434,-45.898,-45.898,-39.551,0.000
1733122780.300,-53.223,-44.922,-43.457,-38.086,0.000
1733122780.304,-44.434,-42.969,-35.645,-31.250,0.000
1733122780.308,-47.363,-41.504,-38.086,-40.039,0.000
1733122780.312,-49.316,-35.645,-39.062,-46.875,0.000
